Fp1,Fp2,F3,F4
5.849304089888252012e-01,4.639527921562381363e-01,6.395550290183075193e-01,5.556838885393838856e-01
1.202011949487397091e+00,1.050561070460491075e+00,1.452193040061511065e+00,1.141911352013027292e+00
2.234421158360828219e+00,2.034511181205665764e+00,2.350866814766624735e+00,2.122700100442786564e+00
2.422755452647520347e+00,2.059499531812877482e+00,2.750553138882303017e+00,2.301617680015144440e+00
2.212322882024869930e+00,2.108914379273138628e+00,2.394527978629291010e+00,2.101706737923626278e+00
1.730808392944447993e+00,1.546137867870498672e+00,1.799125585011788431e+00,1.644267973297225627e+00
8.170617892175486841e-01,7.363721392714287495e-01,1.013608499791558204e+00,7.762086997566711721e-01
-3.936819238415274480e-01,-3.572632200908694156e-01,-1.836581499111063498e-01,-3.739978276494510534e-01
-9.354131596537101911e-01,-9.156860494737205647e-01,-1.039994636750606993e+00,-8.886425016710246538e-01
-1.652162939553798449e+00,-1.400892719550353327e+00,-1.825685994402390211e+00,-1.569554792576108415e+00
-1.980853610848580137e+00,-1.913208959869891590e+00,-2.139571943316757707e+00,-1.881810930306150986e+00
-1.633707000042400104e+00,-1.502814700165094219e+00,-1.640381918076211143e+00,-1.552021650040279921e+00
-8.125402050477559257e-01,-6.636460597007640683e-01,-1.027256829837938312e+00,-7.719131947953681294e-01
-4.284350750532883723e-02,-1.007743620259554940e-01,7.865965290812151900e-02,-4.070133213006239120e-02
6.655980813704461818e-01,6.359194106294696613e-01,7.805199783686351811e-01,6.323181773019238561e-01
1.423136383512169978e+00,1.196664401253517696e+00,1.536896156853115647e+00,1.351979564336561523e+00
1.375990419867998638e+00,1.035242414156020363e+00,1.532483198876517516e+00,1.307190898874598606e+00
1.741027666070535496e+00,1.636316724631155184e+00,2.111073901375963846e+00,1.653976282767008588e+00
5.427835961209753757e-01,4.922066758042951684e-01,6.170751100471110195e-01,5.156444163149266346e-01
9.793287499053779377e-02,4.684130197601672763e-02,4.358497184343697040e-01,9.303623124101090269e-02
-7.511026566363758761e-01,-7.515664988527579471e-01,-6.906933724342555481e-01,-7.135475238045569935e-01
-1.372464566077871373e+00,-1.396266789436733546e+00,-1.534424804654870300e+00,-1.303841337773977704e+00
-1.325425990806652354e+00,-1.081214838219776819e+00,-1.598956614414519528e+00,-1.259154691266319626e+00
-1.720521932616151828e+00,-1.628939827963637565e+00,-2.028949238104230890e+00,-1.634495835985344092e+00
-7.587193847576504391e-01,-7.362708162752682473e-01,-8.654637655560405429e-01,-7.207834155197678783e-01
-2.184779531248508544e-01,-3.318027941861841357e-01,-2.718896980761895121e-01,-2.075540554686083061e-01
5.620799009921195744e-01,4.866115446313820647e-01,6.589473434859771661e-01,5.339759059425135401e-01
1.438351896621411719e+00,1.311460160434491762e+00,1.526172356844330835e+00,1.366434301790341088e+00
2.286493396927519406e+00,1.856816246247887880e+00,2.502742781665699745e+00,2.172168727081143391e+00
2.087660217417862896e+00,2.018051379509388177e+00,2.124977145491620867e+00,1.983277206546969706e+00
1.321435470547243973e+00,1.157725770157741030e+00,1.482550464974300430e+00,1.255363697019881819e+00
1.061772547603972328e+00,1.125624900799467643e+00,1.341995881936238533e+00,1.008683920223773622e+00
-3.458514446406285026e-01,-3.688414638398844203e-01,-3.704066609339850547e-01,-3.285588724085970469e-01
-1.141800183986931838e+00,-1.095321758358267950e+00,-1.265706789239017471e+00,-1.084710174787585135e+00
-1.996275388937915451e+00,-1.775080651032926005e+00,-2.263502476401789476e+00,-1.896461619491019546e+00
-2.450716826045197028e+00,-2.102835807429192627e+00,-2.685065770751027259e+00,-2.328180984742937110e+00
-2.024260515669673133e+00,-2.021580404696153632e+00,-2.302342488216260197e+00,-1.923047489886189343e+00
-1.384598504833131294e+00,-1.198462113493448999e+00,-1.540190895767853618e+00,-1.315368579591474685e+00
-4.383968083997030196e-01,-3.944942470487319275e-01,-3.775456770787734007e-01,-4.164769679797178381e-01
2.262289685905674030e-01,7.104889255425494987e-02,3.175998731058825575e-01,2.149175201610390162e-01
1.591527044551900527e+00,1.323821162264127160e+00,1.753516865894799270e+00,1.511950692324305345e+00
1.956290296027403564e+00,1.739114893187718724e+00,2.085668010289758012e+00,1.858475781226033297e+00
2.015859512177797797e+00,1.972546676831270052e+00,2.118066944989752454e+00,1.915066536568907907e+00
1.044522947081924169e+00,8.992597004701545771e-01,1.118675391682995901e+00,9.922967997278279162e-01
1.257408595276660046e+00,1.151713966834418956e+00,1.614715330679315608e+00,1.194538165512826877e+00
4.499115004457526767e-01,3.192471120587987432e-01,3.656744144176146127e-01,4.274159254234650152e-01
-2.913457992044707900e-01,-1.190280693189841033e-01,-3.079139038696402930e-01,-2.767785092442472394e-01
-1.197065729651876298e+00,-9.627716955023061240e-01,-1.386639696876046823e+00,-1.137212443169282494e+00
-1.310249758669734366e+00,-1.072535346933513711e+00,-1.500521213508269947e+00,-1.244737270736247625e+00
-1.038691316143165677e+00,-1.104336848450985231e+00,-1.274058534524269204e+00,-9.867567503360072934e-01
-9.493774585707021041e-01,-8.095279011965370586e-01,-1.211571388337753019e+00,-9.019085856421669156e-01
2.954909285462338497e-02,3.527886909086493106e-02,-4.883989382395399759e-02,2.807163821189221503e-02
1.012741116850521594e+00,9.776833457828217888e-01,1.235891020321206790e+00,9.621040610079955036e-01
1.297118633770360407e+00,1.190891179131642552e+00,1.484876045860422655e+00,1.232262702081842409e+00
1.720764516210342432e+00,1.560535094088995711e+00,1.854486069827608219e+00,1.634726290399825199e+00
1.446469955153607767e+00,1.096275132521353557e+00,1.737134799284960174e+00,1.374146457395927223e+00
8.523709074950779341e-01,7.176157613098536059e-01,8.999163215624319534e-01,8.097523621203239763e-01
-1.549834531903395429e-01,-1.531177906889463480e-01,-2.134244804373539028e-01,-1.472342805308225477e-01
-8.236997381161668130e-01,-7.685868086053165849e-01,-8.774468293948644027e-01,-7.825147512103584058e-01
-1.289415789395094603e+00,-9.791319693209424857e-01,-1.349730412115676126e+00,-1.224944999925339895e+00
-2.067778508162184892e+00,-1.965908999318290773e+00,-2.354160598184119824e+00,-1.964389582754075603e+00
-1.794650372484970724e+00,-1.518606249380748174e+00,-1.897746608996850881e+00,-1.704917853860722143e+00
-1.385748462995253893e+00,-1.238183284256155536e+00,-1.551863919743571074e+00,-1.316461039845491232e+00
-7.716695203665666636e-01,-7.263174406655802384e-01,-9.772691932813818427e-01,-7.330860443482383193e-01
-1.408718218159619173e-01,-5.379091924506224087e-03,-8.384457442868564758e-02,-1.338282307251638104e-01
1.198046695562945851e+00,9.551651513106700353e-01,1.280154104226995937e+00,1.138144360784798526e+00
1.880181741639408211e+00,1.628891088449015756e+00,1.994302312863750259e+00,1.786172654557437678e+00
2.114543660661488467e+00,1.969452691931507404e+00,2.274789625117243919e+00,2.008816477628414088e+00
2.029452189709726184e+00,1.942492857849372756e+00,2.310607615115440439e+00,1.927979580224239875e+00
1.032136168470204396e+00,7.745756076138270441e-01,1.056729901628862267e+00,9.805293600466941095e-01
7.860397852623677295e-01,8.368453582168859928e-01,9.354722011134171122e-01,7.467377959992492764e-01
-3.634844690756477981e-01,-1.968986776838917430e-01,-1.551107022225345633e-01,-3.453102456218654082e-01
-1.293360415478630454e+00,-1.274349096229513645e+00,-1.553909476457865591e+00,-1.228692394704698820e+00
-1.961210431354570849e+00,-1.740369823807700334e+00,-2.157720882476547253e+00,-1.863149909786842251e+00
-2.070986794533708597e+00,-1.737352477813829177e+00,-2.352661941076914953e+00,-1.967437454807023034e+00
-1.440888299031937825e+00,-1.211327176182720677e+00,-1.572143106659700917e+00,-1.368843884080340967e+00
-1.176321945251424639e+00,-1.084258543136298325e+00,-1.311625503921904690e+00,-1.117505847988853329e+00
-1.133522020302066280e-02,-5.128886550145198009e-02,-4.055855676483531222e-03,-1.076845919286962931e-02
7.111218162461597769e-01,4.918114254081278891e-01,8.126783685522538381e-01,6.755657254338517381e-01
1.359532150267148909e+00,1.179672515025729007e+00,1.270331325132221023e+00,1.291555542753791475e+00
1.573505654711632840e+00,1.541681155292750072e+00,1.768130408741635851e+00,1.494830371976051175e+00
1.508497385209614849e+00,1.209704010320997947e+00,1.570610614871565280e+00,1.433072515949133985e+00
6.876478994085175600e-01,5.613014427649083427e-01,7.566403391260952960e-01,6.532655044380916154e-01
3.654682149783910483e-01,2.997378431062509008e-01,2.576803430391430005e-01,3.471948042294714654e-01
-4.870254721412848875e-01,-3.999363921918194231e-01,-5.393122317395232512e-01,-4.626741985342206487e-01
-1.303662744178772037e+00,-1.194848817138801866e+00,-1.382446394203266316e+00,-1.238479606969833391e+00
-1.379303312037226004e+00,-1.364166239448961981e+00,-1.586040781937360311e+00,-1.310338146435364726e+00
-1.437935433172196742e+00,-1.359484420641796865e+00,-1.675494493016582265e+00,-1.366038661513586883e+00
-1.020452922538638951e+00,-9.053322187966027501e-01,-1.162064194541932105e+00,-9.694302764117069815e-01
4.739161379764168514e-01,3.525253299795466644e-01,6.161495265676746325e-01,4.502203310775960143e-01
1.264322489343765010e+00,1.058804270866671171e+00,1.269594630403445112e+00,1.201106364876576738e+00
1.696958845831838758e+00,1.559702499609170179e+00,1.728319696432594865e+00,1.612110903540246776e+00
1.730484039537708130e+00,1.401230190548315546e+00,1.863882278698801409e+00,1.643959837560822645e+00
1.636767940798944831e+00,1.490516271986606078e+00,1.950365867766026939e+00,1.554929543758997612e+00
1.378187714178207290e+00,1.278566067994828748e+00,1.537636090718359050e+00,1.309278328469296815e+00
6.512113039156729455e-01,5.644642195633177151e-01,5.581715015117473255e-01,6.186507387198892927e-01
-3.733393639677374809e-01,-3.272954598788647140e-01,-3.971887765958269090e-01,-3.546723957693506124e-01
-1.474291069153751188e+00,-1.404844397346931339e+00,-1.624889977871645463e+00,-1.400576515696063673e+00
-2.009518797780921684e+00,-1.837828334075871650e+00,-2.098299564439442211e+00,-1.909042857891875444e+00
-2.685600245638334549e+00,-2.265632778553095417e+00,-3.127809173568262047e+00,-2.551320233356417777e+00
-1.751394769660595374e+00,-1.424913512044537978e+00,-2.104629245720227804e+00,-1.663825031177565528e+00
-1.710423227988644435e+00,-1.483915605579577468e+00,-1.865751010681203415e+00,-1.624902066589212213e+00
-6.034999185923737297e-01,-7.199413131284549960e-01,-5.783998720680766370e-01,-5.733249226627550321e-01
9.187687384557776671e-01,7.807426997797071166e-01,1.022936343066600973e+00,8.728303015329887948e-01
1.101822069801886350e+00,1.039644694880802245e+00,1.301489326499608357e+00,1.046730966311792077e+00
2.098237949888711817e+00,1.906516287313494651e+00,2.272087160260194416e+00,1.993326052394276182e+00
1.779569669538521692e+00,1.723349420329319592e+00,2.055724061183122231e+00,1.690591186061595419e+00
1.783247568509743086e+00,1.546306166840113017e+00,1.928628797525110405e+00,1.694085190084255954e+00
8.515793423462209022e-01,8.506908815723258632e-01,9.035648981020146797e-01,8.090003752289097738e-01
6.435129921724560553e-01,5.474310364038147414e-01,7.495903523065455820e-01,6.113373425638332082e-01
-2.973814086709664073e-01,-2.890626377686234538e-01,-3.191304740488923875e-01,-2.825123382374180592e-01
-1.499634645821556589e+00,-1.292668690284527022e+00,-1.658272406189856829e+00,-1.424652913530478626e+00
-1.666447240310663380e+00,-1.386656140619675126e+00,-1.862462270303172573e+00,-1.583124878295130156e+00
-1.419166686732062477e+00,-1.071542079504881784e+00,-1.524340200840166082e+00,-1.348208352395459331e+00
-1.053347159904575614e+00,-8.615260712410630628e-01,-1.077460615338108330e+00,-1.000679801909346800e+00
-4.171740437097203047e-02,-1.761541991849132627e-01,-1.280089614869007741e-01,-3.963153415242342409e-02
5.259953737954639053e-01,3.754760066212370351e-01,4.890300479293037128e-01,4.996956051056906656e-01
1.099011279313814038e+00,9.311734461310411382e-01,1.227830756322997985e+00,1.044060715348123392e+00
1.530072446597381841e+00,1.474871101658288719e+00,1.758301561243718947e+00,1.453568824267512660e+00
8.677198294626533581e-01,7.331496063119492534e-01,7.793484575880860188e-01,8.243338379895206458e-01
7.223733178318098025e-01,6.675197711243952003e-01,7.118020372079507663e-01,6.862546519402192846e-01
-3.555058875851157402e-02,1.666268275608364519e-02,1.496476668645155828e-01,-3.377305932058599636e-02
-1.270086185043026505e+00,-1.036973081882182512e+00,-1.415965412390087330e+00,-1.206581875790875058e+00
-1.710934602551863026e+00,-1.547804050383349672e+00,-1.916451406420116799e+00,-1.625387872424269853e+00
-2.000064326396383318e+00,-1.645908170274704707e+00,-2.311979117828842245e+00,-1.900061110076564086e+00
-1.948046618894199389e+00,-1.560587581876972774e+00,-2.335015407712567104e+00,-1.850644287949489319e+00
-1.271669137485648360e+00,-1.220472206763326906e+00,-1.430922590067452482e+00,-1.208085680611365786e+00
-2.304959349578475925e-01,-1.014331816382564450e-01,-1.625496444861269651e-01,-2.189711382099552017e-01
2.858374659910579152e-01,2.932676496332330407e-01,3.619171088543288173e-01,2.715455926915050222e-01
1.359435550268432547e+00,1.382169843613688442e+00,1.596877217411031724e+00,1.291463772755010897e+00
1.944440482464989239e+00,1.924665119939117819e+00,2.199642909188134876e+00,1.847218458341739700e+00
2.423978652765787167e+00,2.260589927140073119e+00,2.694127851843636012e+00,2.302779720127497765e+00
2.216847690449280428e+00,1.978390069104664306e+00,2.324098276929280171e+00,2.106005305926816451e+00
1.508725464971530483e+00,1.220579543929365851e+00,1.632699519308758340e+00,1.433289191722953992e+00
6.124955242516046949e-01,5.657773798152696543e-01,5.489798962359214718e-01,5.818707480390243880e-01
-4.905429381468755512e-01,-6.622167984161679843e-01,-6.667755646494593069e-01,-4.660157912395317403e-01
-1.441025855813457879e+00,-1.262387440893989687e+00,-1.415826580585882066e+00,-1.368974563022784974e+00
-1.671142982960445611e+00,-1.334988133647574848e+00,-1.863797930832187255e+00,-1.587585833812423353e+00
-2.226332222378573089e+00,-2.049045662197945816e+00,-2.448412172902058703e+00,-2.115015611259644324e+00
-1.518694476761777601e+00,-1.478323476830713412e+00,-1.679227907769857753e+00,-1.442759752923688632e+00
-1.083832195133482168e+00,-9.032296503871782845e-01,-1.236866924056619910e+00,-1.029640585376808026e+00
-1.792324659580543933e-01,-2.442864361842338461e-01,-2.247669780924234639e-01,-1.702708426601516611e-01
5.682179178783569595e-01,4.042120838193431487e-01,6.306187187636769220e-01,5.398070219844390838e-01
1.277632061604269564e+00,1.161557082385816564e+00,1.525536454258601182e+00,1.213750458524055942e+00
1.327474940179924401e+00,1.204523252359958496e+00,1.409960230428581873e+00,1.261101193170928170e+00
1.372294106631500643e+00,1.130399192653987139e+00,1.577229337717757751e+00,1.303679401299925544e+00
7.688634995259227001e-01,5.428687451425278088e-01,9.510379268520200435e-01,7.304203245496265762e-01
1.190985751287173405e-02,-3.569050713603150182e-02,-7.788427617114081214e-02,1.131436463722814735e-02
-5.894178994530049343e-01,-6.252505681818028016e-01,-7.138788297676571526e-01,-5.599470044803546154e-01
-9.881298102033326813e-01,-1.021646359679504235e+00,-1.237547061300990903e+00,-9.387233196931660251e-01
-1.421351037546187301e+00,-1.334638779472164583e+00,-1.479357368848905896e+00,-1.350283485668877903e+00
-1.326666757477980019e+00,-1.193431633450195095e+00,-1.137305819935150897e+00,-1.260333419604080962e+00
-5.760046077091656169e-01,-3.714462264003617342e-01,-5.746453927413094354e-01,-5.472043773237073028e-01
-2.796095751467262414e-01,-3.290379112000952899e-01,-4.033247467965186406e-01,-2.656290963893899182e-01
1.066309587312632701e+00,1.146301930833184990e+00,1.343332462696557927e+00,1.012994107947001066e+00
1.262132370661423364e+00,1.131558320114910865e+00,1.308941795993435075e+00,1.199025752128352051e+00
2.054678167903942310e+00,1.913717117715653337e+00,2.276002246685324248e+00,1.951944259508745061e+00
1.525272160894541873e+00,1.398603381849521821e+00,1.685417751240413375e+00,1.449008552849814668e+00
1.765075959891529767e+00,1.648140524024762854e+00,1.750231052298450107e+00,1.676822161896953212e+00
4.872741652512228017e-01,3.793623381316695853e-01,4.065478563956430591e-01,4.629104569886616227e-01
-1.888667142737665561e-03,4.300142648247062133e-02,8.206885159072901947e-02,-1.794233785600782239e-03
-9.774612138261732364e-01,-9.457805519026184493e-01,-1.076891619175555093e+00,-9.285881531348645357e-01
-1.946882147790672590e+00,-1.790335186264894185e+00,-2.161853652780347357e+00,-1.849538040401138783e+00
-2.205306126282754686e+00,-2.087511453865776190e+00,-2.493990665485650737e+00,-2.095040819968617019e+00
-2.047531502876635212e+00,-1.756676571624520067e+00,-2.186556904376410593e+00,-1.945154927732803296e+00
-1.564297327390744785e+00,-1.413443189843954118e+00,-1.728395239113639015e+00,-1.486082461021207557e+00
-5.391784544604234508e-01,-5.886526231149881161e-01,-5.534939808669102623e-01,-5.122195317374022006e-01
4.162254637943869628e-01,2.909512247368454263e-01,5.858556247715500653e-01,3.954141906046675925e-01
1.059398480470793658e+00,9.864923642442401386e-01,1.044007643993382972e+00,1.006428556447253930e+00
1.922303842130472118e+00,1.711547033020776487e+00,2.057874306892531369e+00,1.826188650023948368e+00
1.949486669823879970e+00,1.650821344023336135e+00,2.061234679333874276e+00,1.852012336332685916e+00
1.213354048566877452e+00,9.422079663843960784e-01,1.324063868277967959e+00,1.152686346138533491e+00
9.370946035523228801e-01,6.977059302335265611e-01,9.825293051718513304e-01,8.902398733747066695e-01
1.780085755744403864e-01,7.372627018933639031e-02,-3.576102292058233600e-02,1.691081467957183671e-01
-3.460941054080790003e-01,-3.043299051383402398e-01,-5.140085930252107360e-01,-3.287894001376750475e-01
-1.375968948554980864e+00,-1.206934149240761922e+00,-1.583696521902322241e+00,-1.307170501127231654e+00
-1.429208616255308151e+00,-1.330340322638833950e+00,-1.593664797469504624e+00,-1.357748185442542610e+00
-1.314770464573765896e+00,-1.225679063304476513e+00,-1.421353433306277392e+00,-1.249031941345077446e+00
-9.111514145063532855e-01,-8.441287504530063934e-01,-1.040045258607202650e+00,-8.655938437810355435e-01
-1.734533588549658500e-01,-6.591578946310587550e-02,-1.991604283281006305e-01,-1.647806909122175589e-01
1.018848067352863263e+00,9.597712515210409245e-01,1.146810969411769188e+00,9.679056639852200439e-01
1.001023686504967092e+00,7.684699232697626003e-01,1.038612279853545539e+00,9.509725021797187372e-01
1.482168303513768048e+00,1.336258912941313159e+00,1.567264629484244054e+00,1.408059888338079491e+00
1.291809008363965061e+00,1.137989777070146147e+00,1.225313249601986954e+00,1.227218557945766841e+00
1.029906738793157084e+00,8.584356663703189838e-01,1.290175072423915381e+00,9.784114018534991741e-01
2.808051531019274960e-01,2.403019663698763297e-01,4.245342843553066570e-01,2.667648954468311295e-01
-9.037892257416410002e-01,-8.806467846512883169e-01,-1.128344294863397490e+00,-8.585997644545588781e-01
-1.353869024833736834e+00,-1.085082106289762871e+00,-1.415140258407282969e+00,-1.286175573592049926e+00
-2.150020973657270851e+00,-1.760334733595525725e+00,-2.364823491864929572e+00,-2.042519924974407264e+00
-1.768294993098885159e+00,-1.591493258614251394e+00,-2.005019126318530631e+00,-1.679880243443940824e+00
-1.491213682383796924e+00,-1.427154139470869110e+00,-1.552922716098757316e+00,-1.416652998264607000e+00
-2.363745753330550037e-01,-2.440623359258028424e-01,-3.244859059411246416e-01,-2.245558465664022341e-01
4.424251899309167291e-01,2.853594041138390880e-01,3.604605838821371977e-01,4.203039304343708649e-01
1.369766619731078716e+00,1.106912260472585174e+00,1.430591973934425498e+00,1.301278288744524669e+00
1.814107284629514316e+00,1.586493268282652469e+00,2.135116274696893246e+00,1.723401920398038412e+00
2.324559740809121866e+00,2.052579594661377627e+00,2.604280367294676157e+00,2.208331753768665529e+00
2.023023236781261502e+00,1.763019476255038187e+00,2.112769722126280669e+00,1.921872074942198250e+00
1.617652602451864041e+00,1.465641328127075926e+00,1.718895994055900545e+00,1.536769972329270706e+00
3.153755577069570770e-01,4.440802098965214162e-01,2.635552699315376612e-01,2.996067798216092148e-01
1.482282353695601462e-01,5.958920860026219180e-02,3.709769857452836495e-01,1.408168236010821361e-01
-1.022587645390460098e+00,-8.528168850816274515e-01,-1.190642719495848656e+00,-9.714582631209370822e-01
-1.874662497273630546e+00,-1.598019382823435031e+00,-2.073495079987656808e+00,-1.780929372409948863e+00
-1.883904707716835381e+00,-1.688810299129203107e+00,-2.341152278009645205e+00,-1.789709472330993423e+00
-2.082810297610174111e+00,-1.865257202291364713e+00,-2.488990590447952567e+00,-1.978669782729665316e+00
-4.569893736417771635e-01,-2.074209907713566170e-01,-5.337715982327999598e-01,-4.341399049596882942e-01
-2.030859003304913146e-01,1.841807838947351339e-02,-3.192452072179702838e-01,-1.929316053139667475e-01
5.630306638984305945e-01,2.435762359780688779e-01,7.388164550659841456e-01,5.348791307035090092e-01
8.681860287627845008e-01,5.441007358261706894e-01,1.009013356308796183e+00,8.247767273246452424e-01
1.323264185204952925e+00,1.110746127755646739e+00,1.539140140866736450e+00,1.257100975944705157e+00
1.053830795781614205e+00,7.892822056117831941e-01,1.038224493200292642e+00,1.001139255992533394e+00
9.339845414773786381e-01,9.494297413360621718e-01,1.103320129777284109e+00,8.872853144035096618e-01
-1.173053127309714727e-01,-1.942172635582675722e-02,-1.292676333649591669e-01,-1.114400470944229005e-01
-6.946737464984931165e-01,-6.565807792302735812e-01,-8.328696974024715205e-01,-6.599400591735684607e-01
-1.510115205354685575e+00,-1.374728272320392186e+00,-1.727159705827206571e+00,-1.434609445086951318e+00
-1.405471481567013070e+00,-1.109593235217308571e+00,-1.774637256496327753e+00,-1.335197907488662405e+00
-1.388813848916517824e+00,-1.251776674639097475e+00,-1.633373692056717230e+00,-1.319373156470691866e+00
-7.115796583434566003e-01,-7.363149484270912204e-01,-7.478476735177643775e-01,-6.760006754262837259e-01
6.211407105383717209e-01,5.030616102876817042e-01,7.725491305358394012e-01,5.900836750114530904e-01
1.247785976000871599e+00,1.253185504687140739e+00,1.361330352611322736e+00,1.185396677200827975e+00
1.598470439469402926e+00,1.512874642337930231e+00,1.856864917850560737e+00,1.518546917495932735e+00
2.123686858448615489e+00,1.901447319952609849e+00,2.407202327798911856e+00,2.017502515526184759e+00
1.933397840963923642e+00,1.756509824336969450e+00,2.176823313132159488e+00,1.836727948915727326e+00
1.741419508637352065e+00,1.597649357727827901e+00,1.692912625781080260e+00,1.654348533205484362e+00
4.146913553243822825e-01,3.701337812171235919e-01,4.678989616462562728e-01,3.939567875581631573e-01
-2.512690242147108677e-01,-1.468570651489650714e-01,-3.178099738570601129e-01,-2.387055730039753243e-01
-1.117605288554655241e+00,-1.069614632128816689e+00,-1.260110705039144019e+00,-1.061725024126922490e+00
-2.086052426916124247e+00,-1.973437165034878094e+00,-2.340839442775042301e+00,-1.981749805570317990e+00
-2.258193122758469951e+00,-1.924322419878577550e+00,-2.629619982077989970e+00,-2.145283466620546253e+00
-2.228550816484630825e+00,-2.001710499745848804e+00,-2.442631479710546838e+00,-2.117123275660399262e+00
-1.573418679643713070e+00,-1.377271565999722780e+00,-1.719621813995535042e+00,-1.494747745661527238e+00
-5.555533743626150933e-01,-3.474677629712358273e-01,-6.547668622671335426e-01,-5.277757056444842831e-01
7.263000194987128122e-01,5.712739358782326082e-01,8.475648162112037198e-01,6.899850185237771383e-01
1.679466165139460232e+00,1.470997626139423531e+00,1.943985760197978419e+00,1.595492856882487098e+00
1.890379906906953345e+00,1.661827108014015897e+00,2.292084300332878133e+00,1.795860911561605544e+00
1.738595938820393982e+00,1.697755671226550689e+00,1.919981672765910696e+00,1.651666141879374106e+00
1.784844719507016730e+00,1.614483788114233098e+00,2.082950903334569226e+00,1.695602483531665872e+00
8.992723569848956044e-01,6.200585813209329444e-01,1.004676938208804993e+00,8.543087391356507521e-01
4.416597031454477795e-02,-2.007380700000300361e-02,4.830277622512665903e-02,4.195767179881753489e-02
-4.552590210274433113e-01,-3.349241173950720518e-01,-3.642789069339158470e-01,-4.324960699760711513e-01
-1.148392784135882971e+00,-9.924068757051631717e-01,-1.225072568219272018e+00,-1.090973144929088701e+00
-1.735808637166450064e+00,-1.509165389908690980e+00,-1.856289987387357732e+00,-1.649018205308127483e+00
-1.611921178065530258e+00,-1.315405917025828542e+00,-1.813351136866447000e+00,-1.531325119162253667e+00
-2.657508256366648003e-01,-3.261170297011455887e-01,-2.043769964629815750e-01,-2.524632843548315630e-01
-1.196215829629019012e-01,-8.689532834191412980e-02,-1.063626167599298761e-01,-1.136405038147568075e-01
4.231796326113235196e-02,7.122414867687663909e-02,2.321645020882231181e-01,4.020206509807573020e-02
1.195796216084297647e+00,1.014732421372360083e+00,1.337641146398397929e+00,1.136006405280082676e+00
1.381151778368856275e+00,1.174567319986828062e+00,1.451321752438073043e+00,1.312094189450413451e+00
1.273533739411399024e+00,1.087626063526780262e+00,1.391495209340977146e+00,1.209857052440828973e+00
5.186856303351223829e-01,4.183816730496017211e-01,4.169508236638780341e-01,4.927513488183662416e-01
-4.233548882879838438e-01,-3.464075553974252930e-01,-2.488144564381546131e-01,-4.021871438735846183e-01
-1.062752120696455416e+00,-1.123673863066030565e+00,-9.496904462941526681e-01,-1.009614514661632656e+00
-1.595602205851988531e+00,-1.383542331815447612e+00,-1.701293557763253306e+00,-1.515822095559389071e+00
-1.914726278481564181e+00,-1.639229442831630079e+00,-2.184508632585000054e+00,-1.818989964557485850e+00
-1.671820985759838729e+00,-1.696576704625570642e+00,-1.792879072303330323e+00,-1.588229936471846626e+00
-1.656120308103087302e+00,-1.416093819627554096e+00,-1.716179126498335261e+00,-1.573314292697932881e+00
-1.441009240676204839e-01,-5.002995416527927786e-02,1.112099256305463246e-01,-1.368958778642394569e-01
7.786127904202595484e-01,5.319323010419794162e-01,8.223091252811494112e-01,7.396821508992464933e-01
1.659020559241229709e+00,1.397673077888721638e+00,1.688326180476283689e+00,1.576069531279168157e+00
2.155339795174461504e+00,2.076048988389308736e+00,2.438329886450643968e+00,2.047572805415738273e+00
2.140830738305683045e+00,1.971028740386487232e+00,2.120712191889883691e+00,2.033789201390398649e+00
1.922274387644551830e+00,1.879731184162938051e+00,2.154380433317212962e+00,1.826160668262324149e+00
1.824048032757491944e+00,1.654474069786103341e+00,1.914766071152391280e+00,1.732845631119617202e+00
3.808935043153505173e-01,3.719571968782524607e-01,4.374806217785537354e-01,3.618488290995829915e-01
-2.924732084994019488e-01,-2.285357401797862009e-01,-4.061534995939110049e-01,-2.778495480744318513e-01
-1.170387401342558586e+00,-8.708617978721187036e-01,-1.280641903460686404e+00,-1.111868031275430546e+00
-1.817521893585736459e+00,-1.636677810069034900e+00,-1.979380610208969493e+00,-1.726645798906449647e+00
-1.977060545548018577e+00,-1.847132345775515105e+00,-2.204387546840456569e+00,-1.878207518270617493e+00
-1.388160861582180994e+00,-1.587533007008466779e+00,-1.741832584991821475e+00,-1.318752818503071911e+00
-8.481112178385624700e-01,-8.339654532207322335e-01,-9.944674109842197574e-01,-8.057056569466343188e-01
-6.180989774138760939e-01,-6.683989603823657921e-01,-5.945455224272029326e-01,-5.871940285431822559e-01
6.750894080075697801e-01,6.730539525989556182e-01,6.584473802726141800e-01,6.413349376071912911e-01
1.033484317673703634e+00,8.970789326304993150e-01,1.168816891081693177e+00,9.818101017900183747e-01
1.388017819106506456e+00,1.397390646422707716e+00,1.646180024448105739e+00,1.318616928151181034e+00
6.001221133991939682e-01,4.365511701275284207e-01,5.427147550112634278e-01,5.701160077292342088e-01
7.873738229345854656e-01,6.449536026361144536e-01,8.241678205644178412e-01,7.480051317878561035e-01
-2.826219365132781047e-01,-2.936282260402755528e-01,-4.327970378250541872e-01,-2.684908396876141690e-01
-6.371659125075439523e-01,-5.064695208151146488e-01,-5.817304743455982141e-01,-6.053076168821667213e-01
-8.332177825497550927e-01,-7.171739101774492475e-01,-8.851935691422292418e-01,-7.915568934222673159e-01
-1.517396422890316510e+00,-1.266741118656265819e+00,-1.916288354404423577e+00,-1.441526601745800606e+00
-1.177978961947367065e+00,-1.178486666172952280e+00,-1.419617307990400201e+00,-1.119080013849998556e+00
-9.745163906647764662e-01,-8.390925122438825934e-01,-9.057455118260493432e-01,-9.257905711315376207e-01
2.924325292544334154e-01,4.606654000118500791e-01,3.338267080708782752e-01,2.778109027917117224e-01
9.860735938114126853e-01,1.011587643740544218e+00,1.036287909504285176e+00,9.367699141208419844e-01
1.356148670143797252e+00,1.383687633625044544e+00,1.507829483207014265e+00,1.288341236636607379e+00
1.907720212503400070e+00,1.457075912387166827e+00,2.011747803131489931e+00,1.812334201878230022e+00
2.272392716897590148e+00,2.116047231805670226e+00,2.593170354008220269e+00,2.158773081052710374e+00
1.625574841048480268e+00,1.454230596191864233e+00,1.688951552521382515e+00,1.544296098996056132e+00
5.698072130050211292e-01,4.452184001575607564e-01,6.980049359306838008e-01,5.413168523547700062e-01
-2.584566457630692593e-01,-1.217048608675321275e-01,-3.080346771515617976e-01,-2.455338134749157908e-01
-1.607875259127923950e+00,-1.519247047685094110e+00,-1.930791952869677752e+00,-1.527481496171527731e+00
-1.819613171867308754e+00,-1.522641721778247970e+00,-2.111787410039417612e+00,-1.728632513273943294e+00
-1.995918230614434519e+00,-1.905344037728508688e+00,-2.310777826086529707e+00,-1.896122319083712648e+00
-1.761190890491121985e+00,-1.578970738028994125e+00,-2.038361302689438048e+00,-1.673131345966565764e+00
-1.369053392629458132e+00,-1.157738924967563143e+00,-1.574546502389547520e+00,-1.300600722997985237e+00
-3.142058529530966648e-01,-3.297156893186196647e-01,-1.521060474926846651e-01,-2.984955603054418316e-01
4.621651592932912167e-01,1.788631420530377991e-01,5.213715411191839344e-01,4.390569013286266253e-01
1.158019553824496395e+00,9.637199485334974058e-01,1.287486781578570438e+00,1.100118576133271464e+00
1.845331376793265088e+00,1.587592995657165496e+00,1.953623987613273494e+00,1.753064807953601756e+00
2.017083851731800159e+00,1.764040559412134224e+00,2.276072365314802948e+00,1.916229659145210151e+00
1.474082491449705490e+00,1.246986616389490266e+00,1.469873445204946671e+00,1.400378366877220060e+00
7.094084316748817676e-01,6.258463671388070360e-01,5.580791455974848381e-01,6.739380100911376292e-01
3.306949474810325640e-01,2.367277653072976940e-01,2.656270159212982818e-01,3.141602001069809247e-01
-6.716239702020588842e-01,-5.308278308676356305e-01,-6.936026384078211038e-01,-6.380427716919558900e-01
-1.407528873049091356e+00,-1.181093896345663197e+00,-1.574322200724109333e+00,-1.337152429396636810e+00
-1.439167225572427489e+00,-1.309132253118606481e+00,-1.735985080819098414e+00,-1.367208864293806059e+00
-1.495430271041659598e+00,-1.535868386068381497e+00,-1.736163288296483032e+00,-1.420658757489576596e+00
-3.985548734770429369e-01,-2.105777088724725965e-01,-3.695276010559216395e-01,-3.786271298031907984e-01
-4.057780577513200870e-02,4.433356348090514154e-02,-2.073169564126301628e-02,-3.854891548637540827e-02
7.452868338930456193e-01,5.365461008385257191e-01,8.775874061840271967e-01,7.080224921983933051e-01
7.331053076376501387e-01,5.659484696951648797e-01,1.023975911356204138e+00,6.964500422557675652e-01
1.452666374535939608e+00,1.507449579198476108e+00,1.652329446580418804e+00,1.380033055809142484e+00
9.272848099575485836e-01,9.146654891426927447e-01,1.257563249544812578e+00,8.809205694596711211e-01
7.308856340667989615e-01,6.074972220720092908e-01,7.488697023592185698e-01,6.943413523634589524e-01
-6.145043414092572487e-01,-6.298960898644493378e-01,-6.234542582985392878e-01,-5.837791243387943085e-01
-9.009109954624320293e-01,-8.353221531997223614e-01,-1.017641226254129005e+00,-8.558654456893103335e-01
-1.477616155073201654e+00,-1.304202075174925035e+00,-1.790689153480184315e+00,-1.403735347319541527e+00
-1.957617776923185726e+00,-1.792382577456164361e+00,-2.107370958611588740e+00,-1.859736888077026418e+00
-1.924356617738175901e+00,-1.788624469292859009e+00,-2.102778072491364281e+00,-1.828138786851267072e+00
-1.195068369776365991e+00,-1.128804549448143790e+00,-1.360423310661135199e+00,-1.135314951287547558e+00
-4.387698484317969494e-01,-3.943574239734087827e-01,-5.720663333226350122e-01,-4.168313560102070991e-01
6.963361754798425007e-01,7.098224374194267439e-01,7.301791398227442942e-01,6.615193667058503202e-01
1.414134487749762581e+00,1.330554454347523841e+00,1.724513745050546110e+00,1.343427763362274430e+00
1.898932737929188264e+00,1.882521838413484083e+00,2.048368472579586097e+00,1.803986101032728717e+00
1.849024181991827387e+00,1.640427921195819483e+00,2.042801313585905110e+00,1.756572972892235907e+00
2.360863386642091832e+00,2.032878359923315781e+00,2.536222461216042223e+00,2.242820217309986930e+00
1.269063924670659649e+00,1.216049028485582717e+00,1.405476830963079404e+00,1.205610728437126689e+00
4.560626213594437539e-01,4.824878944559951588e-01,6.616211521239068194e-01,4.332594902914715385e-01
-2.505772356288643588e-01,-4.106907752101546238e-01,-2.352363389813959260e-01,-2.380483738474211408e-01
-1.044209532720596689e+00,-1.098185828120093577e+00,-1.052338799709711559e+00,-9.919990560845668437e-01
-2.256842807136427709e+00,-2.024680983892376496e+00,-2.481830891836068975e+00,-2.144000666779606323e+00
-2.131389548934746525e+00,-2.029509980560311622e+00,-2.388484845192436090e+00,-2.024820071488008910e+00
-1.413727851015518233e+00,-1.542034911157643240e+00,-1.614705448207105709e+00,-1.343041458464742322e+00
-7.982999845902765124e-01,-6.489724418336333400e-01,-8.904911107624674527e-01,-7.583849853607625979e-01
3.736217791222848361e-02,1.221501477670383085e-01,9.579383753868078721e-02,3.549406901661705804e-02
7.654738832047990327e-01,6.110082644779462058e-01,9.467188009618646705e-01,7.272001890445590755e-01
1.315605575099197067e+00,1.116354308527117256e+00,1.477351045961345477e+00,1.249825296344237113e+00
1.170163694467318383e+00,1.255523900814050631e+00,1.326788705923525491e+00,1.111655509743952441e+00
1.165957914813553264e+00,1.087714791609610376e+00,1.188642249885042856e+00,1.107660019072875590e+00
5.487670176680594647e-01,3.952062277341250596e-01,6.027177532156475781e-01,5.213286667846565026e-01
-1.504862929263575677e-01,-2.571762371848432815e-01,-6.067563749559415354e-02,-1.429619782800396754e-01
-6.126701718259206508e-01,-4.581798742114391310e-01,-7.281918764146395606e-01,-5.820366632346245517e-01
-1.276243411907834746e+00,-1.178783872670357447e+00,-1.335810729136044150e+00,-1.212431241312442953e+00
-1.400393048506432425e+00,-1.163399086846552244e+00,-1.520874149774630313e+00,-1.330373396081110826e+00
-1.166285789728235933e+00,-1.117358079926448866e+00,-1.308172147306670308e+00,-1.107971500241824003e+00
-7.017762837420582489e-01,-7.295271055743617339e-01,-7.263201862379350393e-01,-6.666874695549552809e-01
2.247035291175133731e-01,4.809223455102773492e-02,1.735322986538046230e-01,2.134683526616376892e-01
1.251185935265295868e+00,1.263984243881265179e+00,1.507347815547866343e+00,1.188626638502030985e+00
1.616387984069911354e+00,1.402761859359621832e+00,1.728735118141017546e+00,1.535568584866415787e+00
1.836386039756541688e+00,1.473174259549134613e+00,1.930211191078005317e+00,1.744566737768714626e+00
2.111527182929787028e+00,1.910116163455853222e+00,2.192852055664748612e+00,2.005950823783297476e+00
1.518633902025725346e+00,1.509262795828441028e+00,1.610927662469227695e+00,1.442702206924439068e+00
6.533846515976986513e-01,6.220241656160638843e-01,6.059331114343105007e-01,6.207154190178136854e-01
-1.779384117510400265e-01,-6.755449304862354287e-03,-2.139713886093336237e-01,-1.690414911634880168e-01
-1.398643393197729123e+00,-1.232866669420932926e+00,-1.708540162929117034e+00,-1.328711223537842656e+00
-1.652243415181743558e+00,-1.343723067068280486e+00,-1.785070475985451655e+00,-1.569631244422656335e+00
-2.178302636971510164e+00,-1.898543089389887362e+00,-2.212759589607742328e+00,-2.069387505122934456e+00
-1.976783534707635681e+00,-1.757199035670449438e+00,-2.014075933970497001e+00,-1.877944357972253897e+00
-1.512412007657029100e+00,-1.340597460819808795e+00,-1.711980618514907349e+00,-1.436791407274177645e+00
-4.382149549072333339e-01,-1.041799946684592859e-01,-5.363311277438167490e-01,-4.163042071618716644e-01
3.907833973688531470e-01,3.367878499354217126e-01,3.344548563592953938e-01,3.712442275004104730e-01
1.476575642222589080e+00,1.277133984684819534e+00,1.765837142191360787e+00,1.402746860111459659e+00
1.694647610470620069e+00,1.512205573013845283e+00,1.879152524309036787e+00,1.609915229947088910e+00
2.079092155505693817e+00,1.647117411300171863e+00,2.322291817054399132e+00,1.975137547730408949e+00
1.639212655129355989e+00,1.484023415143165048e+00,1.913753670722438294e+00,1.557252022372888067e+00
8.180964508987783601e-01,7.105213039493833982e-01,1.019467452459045020e+00,7.771916283538393699e-01
2.268885508992740663e-01,2.316111068325189259e-01,2.990468595164711418e-01,2.155441233543103630e-01
-8.836584798640347849e-01,-7.342044860379254301e-01,-9.206374136189257040e-01,-8.394755558708330012e-01
-8.754584782282566202e-01,-7.189005815035213187e-01,-9.860430854308795956e-01,-8.316855543168437670e-01
-1.418788713426183179e+00,-1.331970214532482988e+00,-1.741608059390759689e+00,-1.347849277754874064e+00
-1.167539653519085618e+00,-1.003078891187562327e+00,-1.295141625516929906e+00,-1.109162670843131249e+00
-3.529637621178448037e-01,-4.986732375908226045e-01,-4.125377625234876722e-01,-3.353155740119525552e-01
2.023787827155449914e-01,4.463058342161350112e-01,3.600371972111230390e-01,1.922598435797677197e-01
7.027336348620187856e-01,7.723676541734433298e-01,6.413505663924530253e-01,6.675969531189178685e-01
1.398238012731022550e+00,1.301973157834748873e+00,1.407723875233823696e+00,1.328326112094471378e+00
1.261519167716083967e+00,1.010590888880342098e+00,1.475305496989940179e+00,1.198443209330279702e+00
1.478175618416178283e+00,1.394213859057425564e+00,1.678778096444936807e+00,1.404266837495369291e+00
7.376753420262062155e-01,6.351588202479357959e-01,8.554683314055957499e-01,7.007915749248958548e-01
-2.223543012211775804e-01,-3.945748327933863431e-01,-3.231271020840684738e-01,-2.112365861601187000e-01
-1.319545178756328152e+00,-1.247725157185174849e+00,-1.443953726345666766e+00,-1.253567919818511678e+00
-1.436292991776961125e+00,-1.266204176910225243e+00,-1.636876719493325805e+00,-1.364478342188113036e+00
-1.645887268461888153e+00,-1.567830365743380971e+00,-1.621684610618800537e+00,-1.563592905038793779e+00
-1.694475232966396794e+00,-1.550654672686163638e+00,-1.911221433909447764e+00,-1.609751471318076943e+00
-1.327327467466684618e+00,-1.232243305023543734e+00,-1.568973896156138803e+00,-1.260961094093350221e+00
-3.902734312859596488e-01,-3.875693486880000815e-01,-3.136427961331517134e-01,-3.707597597216616414e-01
5.275801072962646998e-01,5.776082194158026484e-01,5.574200418100665466e-01,5.012011019314513982e-01
1.713938612225775149e+00,1.595033899414099343e+00,2.022668098551421600e+00,1.628241681614486236e+00
1.977534309512324784e+00,1.833920635626344886e+00,2.229768367515518435e+00,1.878657594036708511e+00
2.323731396293447382e+00,1.967001183533298114e+00,2.724593032149604799e+00,2.207544826478774702e+00
2.174476728035418471e+00,1.907945246242297666e+00,2.618093607918726917e+00,2.065752891633647614e+00
1.484381112360236399e+00,1.485187858737023525e+00,1.805965554739500156e+00,1.410162056742224612e+00
3.011308342534215754e-01,2.571574782603422427e-01,2.532793688862002845e-01,2.860742925407505077e-01
-6.287748474675718402e-01,-6.381692389346411698e-01,-7.525192291060481820e-01,-5.973361050941932149e-01
-1.447756499911618588e+00,-1.353146963928935964e+00,-1.623030845249977094e+00,-1.375368674916037648e+00
-1.785019793192829107e+00,-1.642891855567872650e+00,-1.824883529284801575e+00,-1.695768803533187485e+00
-1.626531660376571375e+00,-1.451175729323274100e+00,-1.738837159670402865e+00,-1.545205077357742818e+00
-1.529197839457227204e+00,-1.317142759497526461e+00,-1.478825475693051228e+00,-1.452737947484365799e+00
-9.538475112157415170e-01,-9.217446524406271990e-01,-9.883509152726570601e-01,-9.061551356549544245e-01
7.259446919671411202e-02,2.106176941059377528e-02,1.706358078004631129e-01,6.896474573687839948e-02
5.873981379246545620e-01,5.823499311657244215e-01,5.948756934771270988e-01,5.580282310284218061e-01
1.177755062864731084e+00,9.539408671329201450e-01,1.279312227222821452e+00,1.118867309721494507e+00
1.563604660343021813e+00,1.454865369921392260e+00,1.705133295004889193e+00,1.485424427325870544e+00
1.500214183737842877e+00,1.389160910815104844e+00,1.634790715445614717e+00,1.425203474550950755e+00
6.222732258456094012e-01,5.855113020269971935e-01,5.519712563277914263e-01,5.911595645533288534e-01
-2.811150743722889978e-02,1.058086974208559267e-01,-4.649111504734122075e-02,-2.670593206536745270e-02
-8.400441900663603301e-01,-7.665325558114390869e-01,-9.607048011125963738e-01,-7.980419805630423191e-01
-1.594023716235723143e+00,-1.417809999426628442e+00,-1.821553661336648755e+00,-1.514322530423936941e+00
-1.669998167377603204e+00,-1.365091455900350859e+00,-1.872012323180239024e+00,-1.586498259008722878e+00
-1.200389594274002825e+00,-1.093714471170646352e+00,-1.178730065465297239e+00,-1.140370114560302683e+00
-4.912785822913633416e-01,-5.104317924310611820e-01,-4.804431453490225490e-01,-4.667146531767951689e-01
1.220121798081696407e-01,-1.243688280676898544e-01,1.698481800220305038e-01,1.159115708177611559e-01
1.119376269806938273e+00,9.411557132873915599e-01,1.467322340824540383e+00,1.063407456316591393e+00
2.062347873414071664e+00,1.890581251132804841e+00,2.157667941143956103e+00,1.959230479743367948e+00
2.307059834022936684e+00,2.103661760934093738e+00,2.465942577255121559e+00,2.191706842321789583e+00
1.914918053907642470e+00,1.738373620800470976e+00,1.953538588088988170e+00,1.819172151212260280e+00
1.506711699773669810e+00,1.149407784924064035e+00,1.808837850154767501e+00,1.431376114784986164e+00
1.943506575880837861e-02,2.004479492872823093e-02,-1.376129516721037727e-03,1.846331247086795829e-02
-6.449991811698511102e-01,-6.340300887560409437e-01,-6.197601822131888483e-01,-6.127492221113585158e-01
-1.199025499758000102e+00,-1.053744397146885614e+00,-1.482017368503735000e+00,-1.139074224770100008e+00
-2.195207291572978114e+00,-1.997145707598808828e+00,-2.514743322189960661e+00,-2.085446926994328987e+00
-2.369381635760260174e+00,-2.066216199007369969e+00,-2.646138661051429253e+00,-2.250912553972247210e+00
-2.220482948196005779e+00,-2.043592232717498458e+00,-2.621017549421512438e+00,-2.109458800786205401e+00
-1.201952980436157059e+00,-9.169660557789789390e-01,-1.282954909754892014e+00,-1.141855331414349140e+00
-2.711864166814687005e-01,-6.885264060673376707e-02,-1.148776512983905873e-01,-2.576270958473952377e-01
7.393970933984406191e-01,7.200395257356524414e-01,8.414658674809017969e-01,7.024272387285185326e-01
1.303337023357959978e+00,1.108119483026631436e+00,1.399597512008882383e+00,1.238170172190061979e+00
1.956250612341967621e+00,1.753130217522534506e+00,2.076528939178069688e+00,1.858438081724869129e+00
1.522149675903847310e+00,1.502011382604843126e+00,1.562287017593773752e+00,1.446042192108654811e+00
2.029477250619076578e+00,1.831155444955500977e+00,2.319290216619698697e+00,1.928003388088122660e+00
1.232953783047987306e+00,1.121756011968883859e+00,1.368362708314456055e+00,1.171306093895587930e+00
2.152165495538257145e-01,3.927634096426262378e-01,3.429061779102160479e-01,2.044557220761344107e-01
-8.533299132117262431e-01,-6.462238030823911350e-01,-7.882015765657578443e-01,-8.106634175511399087e-01
-1.205892450616973921e+00,-1.205194139303691347e+00,-1.227112131943150830e+00,-1.145597828086125203e+00
-1.363254319891554545e+00,-1.172432912396098814e+00,-1.468833206974951455e+00,-1.295091603896976862e+00
-1.196791477454456354e+00,-1.237951524085342703e+00,-1.132971383883802918e+00,-1.136951903581733481e+00
-2.647744759981094931e-01,-3.692867827289468274e-01,-1.749119868072759876e-01,-2.515357521982040101e-01
3.118696091353799771e-01,4.375131862182197739e-01,2.260047940726314653e-01,2.962761286786109727e-01
1.003810009571390882e+00,8.113343501938081737e-01,1.125217615048801578e+00,9.536195090928213380e-01
1.470712242047050644e+00,1.388926657403353637e+00,1.454257797759274551e+00,1.397176629944698156e+00
1.414913778085141294e+00,1.325428167509909327e+00,1.598076780825391507e+00,1.344168089180884262e+00
1.183134175268536037e+00,9.710987545090471462e-01,1.224836301773992053e+00,1.123977466505109213e+00
8.186967643869708100e-01,8.746807476967792816e-01,1.030316649568602472e+00,7.777619261676221862e-01
-3.990261803496764070e-02,-2.978277019731424557e-01,-2.124418192606247410e-02,-3.790748713321925867e-02
-8.746612355596362631e-01,-7.962407523252108543e-01,-1.011359466235928650e+00,-8.309281737816544000e-01
-1.833944288507311171e+00,-1.703190566893215685e+00,-2.018857140960461649e+00,-1.742247074081945568e+00
-1.650274104990471669e+00,-1.467291316500155318e+00,-1.725641620285229605e+00,-1.567760399740947941e+00
-1.719933958056501622e+00,-1.537352268812213874e+00,-1.800663715084535266e+00,-1.633937260153676574e+00
-1.603985488411373783e+00,-1.312709754940101670e+00,-1.573746583848671721e+00,-1.523786213990804939e+00
-4.955410503108601539e-01,-3.337804403610504789e-01,-5.348283388170569363e-01,-4.707639977953171351e-01
6.319096310956642260e-01,5.782568004359665004e-01,7.000547240644859892e-01,6.003141495408810258e-01
1.724737970010330024e+00,1.434963223950458167e+00,2.117280408468690922e+00,1.638501071509813389e+00
1.668775795120269745e+00,1.763307397894170236e+00,1.752756343701380226e+00,1.585337005364256147e+00
2.471756731468797597e+00,2.167314141364713009e+00,2.512873814056327149e+00,2.348168894895357628e+00
1.646590796446922633e+00,1.570230131866494405e+00,1.587374705253691065e+00,1.564261256624576379e+00
1.722156783336064256e+00,1.493865536135090100e+00,2.092427548509836921e+00,1.636048944169260944e+00
8.835804060976124585e-01,8.644041368422485938e-01,9.596393693748588305e-01,8.394013857927318245e-01
-7.016588335207959437e-01,-6.522951102430144532e-01,-7.264236372492870464e-01,-6.665758918447560744e-01
-1.390435608418431723e+00,-1.116073953500674731e+00,-1.675066697635823720e+00,-1.320913827997510115e+00
-1.832066982846151104e+00,-1.744114440552759770e+00,-2.015322063041637524e+00,-1.740463633703843493e+00
-1.871642600631255648e+00,-1.721372533288588524e+00,-1.989413104996181625e+00,-1.778060470599692744e+00
-1.266876267753192398e+00,-1.120575532922798212e+00,-1.483445550012518321e+00,-1.203532454365532800e+00
-9.833286361063446890e-01,-8.750009426011498004e-01,-1.075937700290661825e+00,-9.341622043010273657e-01
1.616917799411921597e-01,1.157721475549840368e-01,2.820658775084203818e-01,1.536071909441325545e-01
7.282232371589307807e-01,6.807151355924481173e-01,8.298646595328197373e-01,6.918120753009842083e-01
1.289732173484039235e+00,9.334323224840309630e-01,1.394836731865973123e+00,1.225245564809837262e+00
1.476905282378836892e+00,1.364481048324398538e+00,1.511852280914928182e+00,1.403060018259894903e+00
1.191243335659318170e+00,1.016098637199107424e+00,1.308022728309310212e+00,1.131681168876352173e+00
6.295637068639042822e-01,5.633335636014082937e-01,7.985254382996130884e-01,5.980855215207090403e-01
-4.240066748525015417e-01,-5.469149891854963030e-01,-5.923104198842396029e-01,-4.028063411098764535e-01
-7.889515869230012690e-01,-4.744561760365109127e-01,-8.372185589590362964e-01,-7.495040075768512056e-01
-9.870582395047431401e-01,-9.479129974494062694e-01,-1.032411122041907214e+00,-9.377053275295059720e-01
-1.362026920031388588e+00,-1.166757700991366331e+00,-1.437731437241008381e+00,-1.293925574029819003e+00
-1.256108535578025265e+00,-1.132215918077757344e+00,-1.526630647630983439e+00,-1.193303108799123935e+00
-5.397027751250603744e-01,-4.090442515553257552e-01,-4.555424012750004525e-01,-5.127176363688072946e-01
3.057504175698078086e-01,1.571359394643173091e-01,3.364606787691483691e-01,2.904628966913174182e-01
8.862262805976068858e-01,7.072801101110388622e-01,9.624237152235451953e-01,8.419149665677264638e-01
1.895890888893483783e+00,1.669807520767788711e+00,2.018161869748160697e+00,1.801096344448809505e+00
2.486789736413244967e+00,2.213861882782227397e+00,2.826771202684150719e+00,2.362450249592582541e+00
2.363752753645557370e+00,2.100989899623837420e+00,2.658755088077849660e+00,2.245565115963279457e+00
1.372514539655333765e+00,1.224567170784002457e+00,1.604674698611996853e+00,1.303888812672566955e+00
1.936337000550725218e-02,1.220654648187833452e-01,5.086251027364678545e-02,1.839520150523188749e-02
-8.749095897172756153e-01,-8.528970771010027097e-01,-1.031824783583722871e+00,-8.311641102314117902e-01
-1.257125079643192089e+00,-1.203474560483798195e+00,-1.437238308149925814e+00,-1.194268825661032318e+00
-2.083864518885560457e+00,-1.796178620312922636e+00,-2.409240512611976914e+00,-1.979671292941282301e+00
-2.414027167791045869e+00,-2.187081422298350120e+00,-2.665906219136521482e+00,-2.293325809401493665e+00
-1.741008243178353343e+00,-1.568294088324303281e+00,-1.846467812224543925e+00,-1.653957831019435609e+00
-1.129121618328447374e+00,-9.442173484375078196e-01,-1.276197825374691952e+00,-1.072665537412024861e+00
-3.154108056476351840e-01,-2.732590413977664667e-01,-4.064396273199564202e-01,-2.996402653652533998e-01
2.153921209066580467e-01,5.646512437998277290e-02,1.836558090433882129e-01,2.046225148613251277e-01
1.747275416965463180e+00,1.532282568381084564e+00,2.008096452108335317e+00,1.659911646117189887e+00
2.069627042620803437e+00,1.917663128569254472e+00,2.347366014481157226e+00,1.966145690489763176e+00
1.329259678293715385e+00,1.292960681256408728e+00,1.343859198571314195e+00,1.262796694379029638e+00
1.574468632151982517e+00,1.516072952965809462e+00,1.715856771578637696e+00,1.495745200544383424e+00
1.128242985157715372e+00,1.063312251131416586e+00,1.200766244677244465e+00,1.071830835899829637e+00
6.384409486008896240e-02,-1.895662129415000285e-02,7.649237084672143305e-02,6.065189011708450872e-02
-6.139838322480952737e-01,-5.322097755288531795e-01,-6.466024250807199669e-01,-5.832846406356905211e-01
-1.223472388129671851e+00,-1.182547682256447130e+00,-1.533943848961561995e+00,-1.162298768723188269e+00
-1.200347124622529238e+00,-1.061430443452982431e+00,-1.212350747387161753e+00,-1.140329768391402654e+00
-1.116066542066156186e+00,-1.132022890179742891e+00,-1.125301380596599010e+00,-1.060263214962848366e+00
-5.084131209925707440e-01,-3.750161090107599904e-01,-5.831618647578812320e-01,-4.829924649429421790e-01
2.141688944206338874e-01,1.741372368516749813e-01,1.743196149706253695e-01,2.034604496996021972e-01
8.079398577085488142e-01,7.615668309473995201e-01,9.560855778420921380e-01,7.675428648231212847e-01
1.283424959200423876e+00,9.171256020223248484e-01,1.445821280960964739e+00,1.219253711240402716e+00
1.584726514700110611e+00,1.280027801045421576e+00,1.798875887562811693e+00,1.505490188965105114e+00
1.563954916781313154e+00,1.314895031803355430e+00,1.821381262016022129e+00,1.485757170942247463e+00
3.172270118682871676e-01,2.040728709530629792e-01,2.559285377232768943e-01,3.013656612748727981e-01
1.842514683643339257e-01,1.865188889042176112e-01,1.968230839662442055e-01,1.750388949461172128e-01
-1.053834242020960543e+00,-8.697169374076181292e-01,-9.385914317261460083e-01,-1.001142529919912372e+00
-1.782719313180161080e+00,-1.504119210200631773e+00,-2.007799316776959664e+00,-1.693583347521153026e+00
-2.075161895285658087e+00,-1.910077807942710093e+00,-2.412651383968466234e+00,-1.971403800521374983e+00
-1.948871712311945226e+00,-1.931360489090731658e+00,-2.133237777715696115e+00,-1.851428126696347931e+00
-1.075782842332458245e+00,-9.074894705650619064e-01,-1.120797781694906847e+00,-1.021993700215835243e+00
-1.181342039752647788e-01,-1.251057048880855893e-01,-8.424716583321023577e-02,-1.122274937765015412e-01
8.735900452590071863e-01,9.588311009724684864e-01,1.053905619565260299e+00,8.299105429960568214e-01
1.762504109439252620e+00,1.646932764690563822e+00,1.961242868791458704e+00,1.674378903967289833e+00
2.534956823844346285e+00,2.397434340685358212e+00,2.857359355276471113e+00,2.408208982652128682e+00
2.477145475852358558e+00,2.400628299529711018e+00,2.849600726794868866e+00,2.353288202059740541e+00
2.294515929442327185e+00,2.078103762505534746e+00,2.629144648410256746e+00,2.179790132970210514e+00
1.367104776633450536e+00,1.151681813477410055e+00,1.392278844656936743e+00,1.298749537801777931e+00
2.720325065043420754e-01,2.488691388663304971e-01,2.262807385903349844e-01,2.584308811791249383e-01
-7.584960831456053487e-01,-8.010696651746858077e-01,-1.056951312536264842e+00,-7.205712789883250702e-01
-1.546039524648480157e+00,-1.410372335851997283e+00,-1.825701624780189603e+00,-1.468737548416056082e+00
-1.948466932048038558e+00,-1.633436538461285448e+00,-2.126231085490775996e+00,-1.851043585445636630e+00
-1.759526272898341404e+00,-1.508213732977769173e+00,-1.897600252957500233e+00,-1.671549959253424200e+00
-1.312736525362230955e+00,-1.268575626149744728e+00,-1.478661329041736083e+00,-1.247099699094119440e+00
-6.441998699579710719e-01,-7.349397786888660633e-01,-7.357870656077225568e-01,-6.119898764600725238e-01
7.216176578420627208e-02,2.061959622423845673e-01,7.552975409226143910e-02,6.855367749499595431e-02
7.228761925222066953e-01,6.164691744764498882e-01,8.102710413954757884e-01,6.867323828960962828e-01
8.702783325505740741e-01,6.246822844382791118e-01,9.427699996194212062e-01,8.267644159230452816e-01
1.321220712752883886e+00,1.168712968450083878e+00,1.393709349528101438e+00,1.255159677115239569e+00
1.216136412489347229e+00,1.119829922831254709e+00,1.427506673034312223e+00,1.155329591864879824e+00
4.863360138100558672e-01,5.558655321009084993e-01,5.019775057259131534e-01,4.620192131195530738e-01
-2.735560287375759514e-01,-8.811573016877283226e-02,-2.407304896882145051e-01,-2.598782273006971510e-01
-1.038773426884844531e+00,-7.588780127979133372e-01,-1.164964572377947372e+00,-9.868347555406022931e-01
-1.495826592792255605e+00,-1.564799083493769727e+00,-1.525081102721252080e+00,-1.421035263152642836e+00
-1.754372793501794758e+00,-1.703976401969614418e+00,-1.912607747779319300e+00,-1.666654153826705009e+00
-1.112777935645851146e+00,-9.049666740514379359e-01,-1.073643288473984381e+00,-1.057139038863558644e+00
-6.154194352537522006e-01,-4.856530939704505334e-01,-6.059757791691495754e-01,-5.846484634910645850e-01
4.575225493476253735e-01,4.148161210665052279e-01,4.762207735433804379e-01,4.346464218802441049e-01
1.335391363420070476e+00,1.168538246675427272e+00,1.479792666796234446e+00,1.268621795249066819e+00
1.764407371663775814e+00,1.636827567090265667e+00,2.011958200801399421e+00,1.676187003080586990e+00
2.031180065699835779e+00,1.669178799910205013e+00,2.310983434939570813e+00,1.929621062414843990e+00
1.585941643154658909e+00,1.506524025198408223e+00,1.913469914035482500e+00,1.506644560996925897e+00
9.264030205137144813e-01,8.944661609514000800e-01,9.240429348842607027e-01,8.800828694880287184e-01
3.210127245206547131e-01,1.749433596944567904e-01,3.547958674478642882e-01,3.049620882946219580e-01
-3.598896604460058435e-01,-1.764148454565261093e-01,-5.791557973961409811e-01,-3.418951774237055097e-01
-1.568226657628339238e+00,-1.526189810391683110e+00,-1.869966612072417877e+00,-1.489815324746922132e+00
-2.305887841168716701e+00,-2.317050097558177590e+00,-2.474305956289645891e+00,-2.190593449110280755e+00
-2.526612243478009390e+00,-2.239192962122614095e+00,-2.730536629874714460e+00,-2.400281631304108654e+00
-1.857036876435314454e+00,-1.633510573559449952e+00,-2.070649338613356427e+00,-1.764185032613548643e+00
-1.320084811178213080e+00,-1.171724014973179795e+00,-1.466935988234273180e+00,-1.254080570619302337e+00
-4.653097890663934755e-01,-6.183910116347196562e-01,-4.189796621879485761e-01,-4.420442996130737878e-01
8.163994369953221364e-01,8.171853342430324130e-01,9.930151795218054023e-01,7.755794651455559796e-01
1.501740929200095831e+00,1.253539395374226206e+00,1.625578493715548856e+00,1.426653882740090973e+00
2.226155945769215272e+00,1.911038137859958352e+00,2.251504115720469823e+00,2.114848148480754197e+00
1.921465986499838907e+00,1.826916083530880197e+00,2.267144369300259310e+00,1.825392687174846928e+00
1.219802948772527706e+00,1.234712615241575495e+00,1.320119098258373924e+00,1.158812801333901188e+00
5.660349384152664198e-01,6.900721428967999671e-01,4.683903330336661730e-01,5.377331914945030489e-01
-2.660252974839103501e-01,-2.988904031142111672e-01,-2.238909213943022225e-01,-2.527240326097148215e-01
-6.849346798909133893e-01,-6.043754826070496522e-01,-6.205282683228213747e-01,-6.506879458963676921e-01
-9.600175755021626012e-01,-8.512796368492300259e-01,-1.099715437757208480e+00,-9.120166967270544323e-01
-1.676266684555310249e+00,-1.312976103517464299e+00,-1.834986646215885919e+00,-1.592453350327544648e+00
-5.647778594843265720e-01,-5.513452226090437280e-01,-4.572243555014759986e-01,-5.365389665101102379e-01
-8.370965150259632725e-01,-7.232166770854687732e-01,-8.270160261935196599e-01,-7.952416892746650978e-01
1.873616770687766830e-01,2.212634035711398273e-01,2.484273448338767121e-01,1.779935932153378364e-01
1.058606855682103332e+00,8.668854708929278896e-01,1.245540829883328371e+00,1.005676512897998087e+00
1.033695556344934374e+00,8.277147839700796927e-01,1.147949716212096183e+00,9.820107785276875889e-01
1.532869570746590249e+00,1.279839201845032193e+00,1.640589286701660932e+00,1.456226092209260692e+00
6.750236370798731178e-01,5.487624228904380841e-01,7.910090492235698489e-01,6.412724552258793898e-01
5.083383433452477451e-01,3.370459258426985460e-01,5.288108966923970033e-01,4.829214261779853357e-01
-4.090293138813316798e-01,-2.260251706133040439e-01,-4.595384832265318464e-01,-3.885778481872650958e-01
-1.028405379406912790e+00,-1.189225944103099897e+00,-1.241489462916873343e+00,-9.769851104365671057e-01
-1.653412944136215312e+00,-1.441938391298104749e+00,-1.893602605272601824e+00,-1.570742296929404480e+00
-2.086548903074110228e+00,-1.993126289392476380e+00,-2.260288070753694978e+00,-1.982221457920404717e+00
-2.019201041469392166e+00,-1.900470533138300722e+00,-2.191354071168023498e+00,-1.918240989395922469e+00
-1.576385973141687380e+00,-1.430548586272938127e+00,-1.865800138592962787e+00,-1.497566674484603011e+00
-5.252758230103000692e-01,-3.427729372542909769e-01,-4.644625107034416889e-01,-4.990120318597850435e-01
4.906439511424454114e-01,6.425176504011110845e-01,6.318752860628288337e-01,4.661117535853231408e-01
1.841688555515862635e+00,1.568116704378465176e+00,1.954920971738194124e+00,1.749604127740069348e+00
2.210790568365926134e+00,1.984193136451464223e+00,2.471381031322257282e+00,2.100251039947629739e+00
2.373693078310458837e+00,2.118608942324051725e+00,2.724612032218133972e+00,2.255008424394935762e+00
2.425773613154753594e+00,2.201514280017782266e+00,2.557002441671895276e+00,2.304484932497016025e+00
1.378931033680274698e+00,1.107601535701771001e+00,1.370422838680939170e+00,1.309984481996260941e+00
4.896616729136438195e-03,1.167724785812093713e-01,1.598523029671813922e-01,4.651785892679616286e-03
-8.737723482649731865e-01,-6.939092785079168380e-01,-8.741074543957594312e-01,-8.300837308517244884e-01
-1.801255998693276572e+00,-1.659685212863836190e+00,-2.130985724472672427e+00,-1.711193198758612644e+00
-1.716424553533926201e+00,-1.610810871870067329e+00,-1.922659624255730337e+00,-1.630603325857229891e+00
-1.456632601342126687e+00,-1.315708977676195879e+00,-1.626281047176791894e+00,-1.383800971275020331e+00
-1.660728214320856155e+00,-1.477163304705122693e+00,-1.702378478548848717e+00,-1.577691803604813314e+00
-1.037341941088070651e+00,-9.158524516272269489e-01,-1.224743274897933221e+00,-9.854748440336670301e-01
1.979346191132415611e-01,9.533352255079488580e-02,3.899960972536121728e-01,1.880378881575794636e-01
4.906508169387491791e-01,3.921168425042588224e-01,7.860273708998357645e-01,4.661182760918117229e-01
1.748408949853241356e+00,1.604950045592355767e+00,1.910648020632200517e+00,1.660988502360579266e+00
1.341522108668862456e+00,1.235015020814473674e+00,1.574436971245252614e+00,1.274446003235419234e+00
8.474641692566127205e-01,6.972395896790536396e-01,9.623401095437896791e-01,8.050909607937820622e-01
4.122200488085813741e-01,4.271873342990563094e-01,5.758100933171733660e-01,3.916090463681523026e-01
-2.690796550073138449e-01,-3.236064532895852608e-01,-2.811581247021940899e-01,-2.556256722569481554e-01
-1.135141607873428660e+00,-9.360424084799396915e-01,-1.115235021805244697e+00,-1.078384527479757216e+00
-1.421206440054085807e+00,-1.273299794828904652e+00,-1.631287326652675729e+00,-1.350146118051381405e+00
-1.623754529254331391e+00,-1.516775847245277475e+00,-1.891629181005087812e+00,-1.542566802791614844e+00
-1.010701721565282485e+00,-1.053165010289276005e+00,-1.089180968825249396e+00,-9.601666354870183051e-01
-7.175494174558664229e-01,-6.434658856816388717e-01,-7.725539294992308514e-01,-6.816719465830730629e-01
4.471921948155733184e-01,1.197278464682873245e-01,5.203144050379322483e-01,4.248325850747946553e-01
1.617203474279004904e+00,1.534711162028884246e+00,1.748559345018718236e+00,1.536343300565054637e+00
1.763882394682649180e+00,1.540253267171953100e+00,1.902740187234175151e+00,1.675688274948516687e+00
2.132097226786304756e+00,1.879294381436039441e+00,2.203059617294058192e+00,2.025492365446989407e+00
1.998939379494168778e+00,1.776365761281561761e+00,2.238113602267471247e+00,1.898992410519460217e+00
1.202635042783880337e+00,1.009671976287894513e+00,1.171845059493197727e+00,1.142503290644686365e+00
7.555380937624880944e-02,-1.093982761289156308e-01,1.662299842062476829e-01,7.177611890743636203e-02
-7.677912891475436874e-01,-7.732933367008277825e-01,-9.047725880902365292e-01,-7.294017246901665086e-01
-1.802951413443359518e+00,-1.563441552610119079e+00,-2.091666585617485641e+00,-1.712803842771191354e+00
-2.125123743796459408e+00,-1.936357859005404247e+00,-2.395419710610009023e+00,-2.018867556606636526e+00
-2.474450608656562522e+00,-2.253885158036758707e+00,-2.651913826180170020e+00,-2.350728078223734308e+00
-1.784584658712755401e+00,-1.551196246620111907e+00,-2.131606134932513275e+00,-1.695355425777117508e+00
-1.206571575081139658e+00,-1.210899633030858125e+00,-1.362254082802041744e+00,-1.146242996327082597e+00
-8.480073028155352133e-02,-5.072123106227656442e-02,-1.793631315872541987e-01,-8.056069376747583555e-02
7.071196928797062187e-01,5.920862298001465795e-01,9.481789413748814566e-01,6.717637082357208467e-01
1.657328321516747582e+00,1.490557914118451066e+00,1.888615199466981531e+00,1.574461905440910137e+00
1.889815045057340992e+00,1.623106679253194073e+00,1.994671224829292600e+00,1.795324292804473920e+00
1.956886981979220508e+00,1.698532146299079448e+00,2.055320171667247120e+00,1.859042632880259394e+00
1.465830729453014625e+00,1.195138933205124543e+00,1.705110381693454968e+00,1.392539192980363882e+00
7.779725924754109512e-01,6.996880759956238816e-01,7.422706365138505014e-01,7.390739628516403981e-01
-7.685048645130726497e-02,-3.001610865091058900e-01,-3.677171931362473861e-02,-7.300796212874190172e-02
-8.325329847184995691e-01,-8.343831344504009095e-01,-1.113807993608376901e+00,-7.909063354825746073e-01
-1.097541966934926672e+00,-1.086675239073102039e+00,-1.120471011204765777e+00,-1.042664868588180305e+00
-1.233040584060257627e+00,-1.206248189110840086e+00,-1.227278466398278089e+00,-1.171388554857244690e+00
-1.201708490466436352e+00,-1.024091032558807735e+00,-1.100990020492389032e+00,-1.141623065943114579e+00
-2.888564874944638539e-01,-2.999329926309790562e-01,-3.280408033271317580e-01,-2.744136631197406362e-01
4.984044323888204842e-01,5.801298042111882047e-01,5.420673916788408819e-01,4.734842107693794655e-01
5.648892639003775251e-01,5.343906869771705148e-01,8.028149594365227015e-01,5.366448007053585822e-01
1.557708564430414278e+00,1.366790379711064984e+00,1.655366483666251165e+00,1.479823136208893386e+00
1.373937070756908962e+00,1.225297526636377921e+00,1.418891653707202050e+00,1.305240217219063359e+00
9.465124424956858906e-01,8.903138160461331330e-01,9.342925226508452807e-01,8.991868203709015850e-01
6.634472664427096822e-01,5.810116685099728784e-01,7.545780401126394032e-01,6.302749031205742147e-01
-4.570559870052707807e-01,-4.762297017700938273e-01,-6.181613607706819558e-01,-4.342031876550072056e-01
-1.270502053923717956e+00,-1.144827570173820641e+00,-1.257835852110249730e+00,-1.206976951227531902e+00
-1.525479362611031675e+00,-1.410404483135492715e+00,-1.620377078399234172e+00,-1.449205394480479914e+00
-2.192994525456001043e+00,-1.970842684181959958e+00,-2.479200610121798487e+00,-2.083344799183200813e+00
-1.931938678191291503e+00,-1.632089844131695333e+00,-2.128233018992679693e+00,-1.835341744281726806e+00
-1.302682348646352573e+00,-1.225533747337039125e+00,-1.612033662335844886e+00,-1.237548231214034899e+00
-3.280591722263272447e-01,-1.703968112962320203e-01,-2.982144528967205499e-01,-3.116562136150108908e-01
7.895763990712231228e-01,6.887633113935250906e-01,9.968330094911871386e-01,7.500975791176619500e-01
1.472588645073509506e+00,1.409284649484759511e+00,1.634711162085995984e+00,1.398959212819834041e+00
2.225459707546366239e+00,1.952789600764441635e+00,2.736053460356613343e+00,2.114186722169047794e+00
2.218626428423245756e+00,1.890170689682957317e+00,2.503088021639256144e+00,2.107695107002083290e+00
1.791777201668077302e+00,1.568289779744235890e+00,1.996085139251172480e+00,1.702188341584673248e+00
1.535978656349681337e+00,1.423967503131591705e+00,1.708595074983564777e+00,1.459179723532197270e+00
1.563246679360211777e-01,1.944992708789321234e-01,3.256923453831334636e-01,1.485084345392201077e-01
-9.858299440406522729e-01,-9.579989916766368241e-01,-1.202064508702672674e+00,-9.365384468386196426e-01
-1.128442623269704459e+00,-9.603277713057422060e-01,-1.162262862901255467e+00,-1.072020492106219081e+00
-2.042527219730783994e+00,-1.855237699269305374e+00,-2.386119285098195153e+00,-1.940400858744244728e+00
-1.781921681609814234e+00,-1.605032669880051888e+00,-1.789658509677380938e+00,-1.692825597529323378e+00
-1.101315418774868604e+00,-8.497093061039092676e-01,-1.219387344515417304e+00,-1.046249647836125174e+00
-4.330070623408804331e-01,-4.667515065106667693e-01,-5.386567267605616438e-01,-4.113567092238363809e-01
1.618255138143777361e-02,1.018408723884938888e-01,-2.669731507058643177e-02,1.537342381236588354e-02
7.796121496429067044e-01,7.236955025245730422e-01,8.363241586810765682e-01,7.406315421607613247e-01
1.443824030960759286e+00,1.375999334218747094e+00,1.638838821821498204e+00,1.371632829412721355e+00
1.267528426448389256e+00,1.089060724183412709e+00,1.241435272977637672e+00,1.204152005125969760e+00
1.053559310571042795e+00,9.250152272136571430e-01,1.146521824013031932e+00,1.000881345042490711e+00
2.517118470328740809e-01,2.844177902040806449e-01,5.183373784287509389e-02,2.391262546812303602e-01
-2.971411991466980096e-01,-2.585227565323637289e-01,-2.696459002019637174e-01,-2.822841391893630703e-01
-1.198451150016245359e+00,-1.073703718256109774e+00,-1.133678182225979825e+00,-1.138528592515433147e+00
-1.543542466949200165e+00,-1.472101318579446483e+00,-1.667557200303700249e+00,-1.466365343601740090e+00
-1.242286764920716102e+00,-1.265613607033686305e+00,-1.172466326968205186e+00,-1.180172426674680253e+00
-8.871805544423518874e-01,-8.112177217172124033e-01,-1.195744050408991344e+00,-8.428215267202342487e-01
-2.753348205473997723e-01,-4.052607670232146186e-01,-3.855387496143087844e-01,-2.615680795200297504e-01
1.874990246881722278e-01,3.030970778107499042e-01,2.177370839414268511e-01,1.781240734537636039e-01
1.077772764023245511e+00,8.574264182431746706e-01,1.131324409848077028e+00,1.023884125822083213e+00
1.798963268262157245e+00,1.435222793718887946e+00,1.997057899834204564e+00,1.709015104849049393e+00
1.819418746339110049e+00,1.681238087023854355e+00,2.245343669911283868e+00,1.728447809022154447e+00
1.900622742600531323e+00,1.611504436427053211e+00,2.093729517279825370e+00,1.805591605470504568e+00
1.122376268141220157e+00,1.047713406672328373e+00,1.324989694543321050e+00,1.066257454734159005e+00
2.808749369194194490e-01,1.795676415058173880e-01,3.164131591416470268e-01,2.668311900734484654e-01
-7.204987907225594013e-01,-6.133413375998798545e-01,-7.519945577989953778e-01,-6.844738511864314479e-01
-1.324604229129137334e+00,-1.114153820716196286e+00,-1.528996601623382023e+00,-1.258374017672680312e+00
-2.064939781411036623e+00,-1.722547107905973762e+00,-2.273629810215314073e+00,-1.961692792340484770e+00
-2.351593523876811531e+00,-2.259870823704165588e+00,-2.696798126623386249e+00,-2.234013847682970955e+00
-1.947170935329682662e+00,-1.687074109563802882e+00,-2.071106338163306138e+00,-1.849812388563198517e+00
-1.076649551878411160e+00,-1.056080219408829901e+00,-1.193693812144331678e+00,-1.022817074284490646e+00
8.597691850502367505e-02,-9.679728499106518558e-03,9.657622033671060813e-02,8.167807257977248436e-02
7.362654027871236018e-01,6.550445224296181923e-01,9.082481312074172086e-01,6.994521326477673995e-01
1.716647106780897936e+00,1.476992450259349443e+00,1.872401669441473349e+00,1.630814751441852950e+00
2.007948958133503048e+00,1.888186497619602333e+00,2.226200513169103168e+00,1.907551510226827896e+00
2.179486396061300013e+00,1.807573154443137486e+00,2.623755356074195078e+00,2.070512076258234746e+00
1.507512083360041943e+00,1.321014868008213439e+00,1.826192646063092839e+00,1.432136479192039680e+00
4.284470628294070327e-01,3.521418680025690251e-01,4.839597435864071984e-01,4.070247096879366366e-01
-7.284457489757481530e-02,-1.523219856272605144e-01,-9.897881802068433932e-02,-6.920234615269607592e-02
-8.536696603204046996e-01,-6.065109224607413418e-01,-7.975713590298233457e-01,-8.109861773043843813e-01
-1.130010010127852516e+00,-1.166144434916141837e+00,-1.443025670435807095e+00,-1.073509509621459745e+00
-1.088879438393904442e+00,-9.798631876187768874e-01,-9.604102175509476869e-01,-1.034435466474209253e+00
-9.139711044425399278e-01,-8.876559073287627610e-01,-1.053579908915890373e+00,-8.682725492204128592e-01
-4.345474390819583643e-01,-4.588659700310744882e-01,-4.652192006803222979e-01,-4.128200671278604017e-01
5.867347708361897451e-02,9.898447832681597780e-02,1.613212340615993723e-01,5.573980322943802163e-02
1.072836768415147413e+00,8.606732666603194026e-01,1.157111880281256555e+00,1.019194929994390098e+00
1.260816346914012565e+00,1.069174474630165461e+00,1.413987860694944310e+00,1.197775529568311903e+00
1.476142707164322054e+00,1.332760678145509026e+00,1.594225406676839762e+00,1.402335571806105907e+00
1.137573727108255106e+00,1.088523040628427196e+00,1.208604497857058480e+00,1.080695040752842395e+00
3.471312300766487002e-01,3.256708028679287104e-01,4.230548365335219385e-01,3.297746685728162319e-01
-3.877470234196606080e-01,-4.271211293525701280e-01,-4.938240302946513283e-01,-3.683596722486775499e-01
-1.122648704301671518e+00,-9.107956551588122229e-01,-1.177381805234108736e+00,-1.066516269086587920e+00
-1.582771791741615974e+00,-1.471401472025581469e+00,-1.700877120959665145e+00,-1.503633202154535109e+00
-2.104833498410108916e+00,-2.041027293175208257e+00,-2.443464167030781731e+00,-1.999591823489603293e+00
-1.578515937762267063e+00,-1.256777815104090035e+00,-1.799195703449280037e+00,-1.499590140874153654e+00
-7.992308041493195736e-01,-6.595101641044982532e-01,-8.114235602626536092e-01,-7.592692639418535672e-01
-4.403776836922207449e-01,-6.115094322971252883e-01,-5.661937941706154387e-01,-4.183587995076096799e-01
8.783249573253903986e-01,8.532168321982771531e-01,9.968339203325090603e-01,8.344087094591208231e-01
1.939591036716287853e+00,1.673121988839505692e+00,2.248439211684689631e+00,1.842611484880473327e+00
2.392106927211095080e+00,2.264920397472024671e+00,2.625705837721427294e+00,2.272501580850540215e+00
2.130506184098432509e+00,1.906130825625959924e+00,2.347364649462146513e+00,2.023980874893510862e+00
2.283281626004380893e+00,2.013284363296822921e+00,2.360173376136279089e+00,2.169117544704161737e+00
1.108295083070547804e+00,1.093373113214931136e+00,1.254046550650487424e+00,1.052880328917020325e+00
3.291083531329259682e-01,3.273849851534459399e-01,3.462599120871825975e-01,3.126529354762796475e-01
-4.577463440419060059e-01,-3.002490998689739676e-01,-6.874238543129905787e-01,-4.348590268398107028e-01
-1.464182528853198662e+00,-1.282635223055430096e+00,-1.687855988691658649e+00,-1.390973402410538684e+00
-2.497470845242583337e+00,-2.259732185461195364e+00,-2.761808022734397294e+00,-2.372597302980453904e+00
-1.622536762444259928e+00,-1.399427591280065108e+00,-1.946584856007822717e+00,-1.541409924322046932e+00
-1.641247149291437557e+00,-1.501252957726965764e+00,-1.772349402737627422e+00,-1.559184791826865535e+00
-7.156636534349587464e-01,-6.785918192229436485e-01,-8.530257829062911634e-01,-6.798804707632107869e-01
2.065882104644654882e-01,7.036686015106094483e-02,3.796105553432670421e-01,1.962587999412422068e-01
8.552851772441255607e-01,8.168660962167588746e-01,1.072790072986256726e+00,8.125209183819191994e-01
1.244305082353478920e+00,1.150287894967362723e+00,1.320903635053513936e+00,1.182089828235804996e+00
1.229300227898317166e+00,1.152939487897166826e+00,1.357345244804248896e+00,1.167835216503401163e+00
9.204080013870248322e-01,8.384927936293110617e-01,1.088611216088561928e+00,8.743876013176735684e-01
3.782476877567624296e-01,5.039205812529673478e-01,3.575719686803133790e-01,3.593353033689242748e-01
-4.960427436576482774e-01,-3.072000995398638246e-01,-4.281066316678391881e-01,-4.712406064747658441e-01
-7.096341574740915314e-01,-4.169122630877862834e-01,-1.038112949248473971e+00,-6.741524496003868938e-01
-1.612519666729290035e+00,-1.606069365182148934e+00,-1.887560135667742722e+00,-1.531893683392825389e+00
-1.426540602260941037e+00,-1.400778208608861375e+00,-1.631123356867192120e+00,-1.355213572147893952e+00
-7.414175688287312216e-01,-6.015738053809083219e-01,-9.245556401825578696e-01,-7.043466903872945828e-01
-4.361167806781606204e-01,-2.208272799773090544e-01,-4.572243018101018186e-01,-4.143109416442525839e-01
4.611868392695975816e-01,4.562174255711751725e-01,5.221274054747371274e-01,4.381274973061176636e-01
1.392670338549383713e+00,1.269067838248396640e+00,1.612894818550547393e+00,1.323036821621914383e+00
1.699932867136035197e+00,1.424959472351277956e+00,2.008044572432392982e+00,1.614936223779233293e+00
2.162736728168030087e+00,1.918069769047070272e+00,2.307105944011519583e+00,2.054599891759628427e+00
1.812706964667221143e+00,1.493560141863722990e+00,1.903855741631479859e+00,1.722071616433860086e+00
9.990850029955994360e-01,9.042035324379202876e-01,1.211837802257525798e+00,9.491307528458193810e-01
-1.368898301447104282e-01,-3.466459970906636545e-02,-5.017340863970683185e-02,-1.300453386374748888e-01
-6.594127897009164352e-01,-4.946865533105659907e-01,-7.651731213264857390e-01,-6.264421502158705746e-01
-1.756282551850002038e+00,-1.547335362444357321e+00,-1.963163746289760869e+00,-1.668468424257501859e+00
-2.026180039660554932e+00,-1.883437959613781354e+00,-2.198191660869752262e+00,-1.924871037677527097e+00
-2.426212926288528138e+00,-2.152984640686658402e+00,-2.897608085568185832e+00,-2.304902279974101464e+00
-1.735903791325491552e+00,-1.352030481474075785e+00,-1.896697857681020949e+00,-1.649108601759216919e+00
-1.225453801976672086e+00,-1.288055937621697788e+00,-1.267858106896738724e+00,-1.164181111877838459e+00
2.959754790091012611e-02,2.834613657144817792e-02,-4.652213019979048458e-02,2.811767050586461841e-02
8.668480448312573250e-01,8.214470984498536410e-01,7.956104414736443475e-01,8.235056425896943866e-01
1.596795797300688990e+00,1.339809796410217135e+00,1.802672825012089808e+00,1.516956007435654508e+00
2.189930831214438101e+00,2.109017042265269648e+00,2.337130795330998101e+00,2.080434289653716018e+00
1.673277477686178960e+00,1.521584008393065179e+00,1.837870457243081956e+00,1.589613603801870001e+00
1.440966923272708922e+00,1.260302838223281041e+00,1.775399180734209326e+00,1.368918577109073498e+00
6.503162057975289123e-01,6.942273829702485521e-01,5.497232269210380329e-01,6.178003955076524223e-01
-1.098810568692394490e-01,-6.972330436211929272e-02,-2.175931763427996768e-01,-1.043870040257774690e-01
-1.218064172061984474e+00,-8.682416943827504507e-01,-1.358213895392862414e+00,-1.157160963458885305e+00
-1.050524796805576422e+00,-7.640533199114872831e-01,-1.128323445244684420e+00,-9.979985569652976007e-01
-1.468899459826707554e+00,-1.364200846736868922e+00,-1.528138377719983954e+00,-1.395454486835372210e+00
-1.076206896949661651e+00,-1.090128748662941405e+00,-1.128501772829550109e+00,-1.022396552102178502e+00
-1.263340788392019465e-01,-1.249880804916221749e-01,-2.597085692349735409e-01,-1.200173748972418464e-01
3.620695003823583003e-01,4.710616163319507610e-01,4.324030202748741503e-01,3.439660253632403908e-01
1.071863627591514767e+00,1.127847707261901977e+00,1.270340741707498777e+00,1.018270446211938962e+00
8.947139931809465763e-01,6.278358061457578465e-01,9.769542971822795518e-01,8.499782935218992419e-01
1.383954402781671700e+00,1.157914393600123937e+00,1.347622820799124987e+00,1.314756682642588048e+00
1.148936375712964475e+00,9.919688390494478814e-01,1.137852508882819969e+00,1.091489556927316196e+00
3.996657132056451456e-01,3.029148055849687493e-01,5.168141679693887269e-01,3.796824275453628550e-01
-5.882537122773205951e-01,-5.680120529636757398e-01,-9.448399920740957469e-01,-5.588410266634545875e-01
-1.238466335359120762e+00,-1.148279300738634490e+00,-1.340434649433258851e+00,-1.176543018591164724e+00
-1.924172489909435901e+00,-1.614306496975367988e+00,-2.194140715605594760e+00,-1.827963865413964051e+00
-2.500501203167289965e+00,-2.378040476155207195e+00,-2.847073522821035318e+00,-2.375476143008925511e+00
-1.702114164574200172e+00,-1.586905593041676443e+00,-1.892430663912261668e+00,-1.617008456345490064e+00
-1.094257744170878288e+00,-9.950917674555641579e-01,-1.251366251967912735e+00,-1.039544856962334229e+00
-4.107068178921379764e-01,-4.134902006605102320e-01,-4.022321909444122046e-01,-3.901714769975310748e-01
8.297843748584265988e-01,6.709738043163355758e-01,9.125105404980011770e-01,7.882951561155052689e-01
1.937185893052615793e+00,1.582150265889964880e+00,1.943438536257329208e+00,1.840326598399985025e+00
2.208028494627865435e+00,1.890541694757550850e+00,2.411086324340485199e+00,2.097627069896471852e+00
2.304060425924785438e+00,2.090496859479489711e+00,2.337205792262115445e+00,2.188857404628546277e+00
1.544234564425481349e+00,1.136790744358262106e+00,1.631002302327556830e+00,1.467022836204207259e+00
1.125708474531948111e+00,8.976273472857698721e-01,1.221846341172613926e+00,1.069423050805350606e+00
-1.934180466938896781e-01,-9.825290246051571197e-02,-1.801509340171550122e-01,-1.837471443591951747e-01
-8.639556276229442000e-01,-7.902512324457343640e-01,-9.290250926436022239e-01,-8.207578462417969289e-01
-1.649781471710760616e+00,-1.589257117209504910e+00,-1.965298146800917856e+00,-1.567292398125222475e+00
-1.951573584997134958e+00,-1.738338928939454187e+00,-2.147370183749154116e+00,-1.853994905747278210e+00
-2.280868073801253448e+00,-1.932762123754280248e+00,-2.546493187869352859e+00,-2.166824670111190621e+00
-1.316407576159112303e+00,-1.144927909656854093e+00,-1.464743656651041004e+00,-1.250587197351156643e+00
-6.830359558935034103e-01,-6.836937173362694908e-01,-7.075169354070890426e-01,-6.488841580988281565e-01
1.711830830036142337e-01,1.890150516735938924e-03,9.853325443944528639e-02,1.626239288534335192e-01
1.093848329452859591e+00,9.500343277816878373e-01,1.273523853994564803e+00,1.039155912980216590e+00
1.502163752975995248e+00,1.287814594698886150e+00,1.554277241488866812e+00,1.427055565327195463e+00
1.298783067244268175e+00,1.061691181338124013e+00,1.468182296894657846e+00,1.233843913882054721e+00
7.262809866072598153e-01,6.188974284305157614e-01,9.820455654583989391e-01,6.899669372768968412e-01
3.166502982033547187e-01,3.567398168439234740e-01,1.667494921425143051e-01,3.008177832931869800e-01
-3.337521405784354966e-01,-2.761039932005503461e-01,-2.338462946870641102e-01,-3.170645335495136941e-01
-1.095684588408966320e+00,-8.660406238196631801e-01,-1.315504582812362155e+00,-1.040900358988517960e+00
-1.415660281173141133e+00,-1.370706645689354408e+00,-1.341088689606919182e+00,-1.344877267114483965e+00
-1.343559207846101167e+00,-1.371945489472667257e+00,-1.512285312005710036e+00,-1.276381247453796108e+00
-1.002201122120842447e+00,-7.339666639388171543e-01,-1.265944225341173679e+00,-9.520910660148003135e-01
2.977032369494997388e-02,1.631715486899786849e-01,-7.182873945829809648e-02,2.828180751020247310e-02
5.834870554763788020e-01,5.693938615208896659e-01,6.294543447120292123e-01,5.543127027025598341e-01
9.628516043581811790e-01,6.837748004468149343e-01,1.179231505156919768e+00,9.147090241402721089e-01
2.031741664381707224e+00,1.774199153868660117e+00,2.300946699283435759e+00,1.930154581162621730e+00
1.853151899065881292e+00,1.602928780601757586e+00,2.079429950498374424e+00,1.760494304112587116e+00
1.551177561434891494e+00,1.402416935804776221e+00,1.784402683077763063e+00,1.473618683363146831e+00
1.163633978246772172e+00,9.970433020696227722e-01,1.400191182816247659e+00,1.105452279334433463e+00
4.308823035720774630e-01,4.972131451004210834e-01,6.293102113735287162e-01,4.093381883934735788e-01
-5.579077555556277712e-01,-2.610907501130793618e-01,-7.482329141151888852e-01,-5.300123677778463271e-01
-1.704847737773529381e+00,-1.584842799251985790e+00,-1.781953334217320606e+00,-1.619605350884852912e+00
-2.118942866996395225e+00,-1.901686076005717929e+00,-2.217983982571952062e+00,-2.012995723646575197e+00
-2.151736506016786787e+00,-1.934695616398884210e+00,-2.474026111177220599e+00,-2.044149680715947159e+00
-1.721169752603635139e+00,-1.534796576438850924e+00,-1.906864751224380816e+00,-1.635111264973453382e+00
-8.520745287231064058e-01,-8.976674789332917959e-01,-1.009241160024516804e+00,-8.094708022869510078e-01
-5.669189240117795681e-01,-3.839966171398864203e-01,-7.314880747848784281e-01,-5.385729778111905119e-01
8.051458561924027535e-01,7.406523539918482557e-01,9.009489074525830477e-01,7.648885633827825492e-01
1.710531587414980237e+00,1.491562477265505837e+00,1.775197329045464123e+00,1.625005008044231092e+00
1.917409138529257762e+00,1.627241693827609303e+00,2.082193426408837311e+00,1.821538681602794751e+00
2.059884549617360783e+00,1.784771309026428998e+00,2.369752174580066928e+00,1.956890322136492610e+00
1.210737199400298447e+00,1.096601100512111238e+00,1.447360712176838593e+00,1.150200339430283547e+00
8.142592724880464150e-01,6.803763666556084111e-01,9.066726664636742816e-01,7.735463088636440609e-01
3.017036837810271876e-02,7.263039937179865957e-02,6.989565912328268849e-02,2.866184995919758213e-02
-8.351846489949048546e-01,-7.123312688293143013e-01,-8.646589061962705047e-01,-7.934254165451595231e-01
-1.147260706598059565e+00,-9.175314001791206042e-01,-1.407728078035576758e+00,-1.089897671268156509e+00
-1.158936667598614800e+00,-7.426391642398075810e-01,-1.309337281584289858e+00,-1.100989834218683905e+00
-9.539991655591197883e-01,-9.405484069455849472e-01,-1.151811680553368689e+00,-9.062992072811637545e-01
-9.154310081326944015e-02,-1.529664971329029455e-01,-7.579749438805558071e-02,-8.696594577260596814e-02
3.271439151999200323e-01,4.275073808185481106e-01,3.162407105132570839e-01,3.107867194399240307e-01
9.986500418083562591e-01,9.341701416356498200e-01,9.954259647472315509e-01,9.487175397179383740e-01
1.184279522006332463e+00,1.026362868084158331e+00,1.426314368211568651e+00,1.125065545906015707e+00
1.749368240135665609e+00,1.436644793722962055e+00,1.830836127065247787e+00,1.661899828128882151e+00
1.201184359323240969e+00,1.018280849442031455e+00,1.337530265998216228e+00,1.141125141357078876e+00
5.362335274425577003e-01,4.394637777042234572e-01,4.892915099559692615e-01,5.094218510704298097e-01
-5.550965615002881881e-01,-5.538661414398874383e-01,-7.146689189830287559e-01,-5.273417334252737954e-01
-1.434681788125344415e+00,-1.240058070345404939e+00,-1.471283241428934740e+00,-1.362947698719077172e+00
-2.245913430580910308e+00,-2.018237420118627501e+00,-2.586116302477943218e+00,-2.133617759051864571e+00
-2.447171884183346080e+00,-2.180564786187537685e+00,-2.664334851321486397e+00,-2.324813289974178687e+00
-1.695062666457686218e+00,-1.504708088069547367e+00,-1.821034118852392858e+00,-1.610309533134801852e+00
-5.984704467066908062e-01,-5.510981624833188874e-01,-6.487522964047234275e-01,-5.685469243713562326e-01
-5.762653690735109607e-02,2.306500913996394064e-02,4.267657386729976909e-02,-5.474521006198353884e-02
9.256943064540869015e-01,1.017593626047154753e+00,9.572930813357949376e-01,8.794095911313825065e-01
1.627202068281117908e+00,1.461445009725855115e+00,1.750097698747831609e+00,1.545841964867062046e+00
2.304605065042339529e+00,1.909869902969689726e+00,2.724302416703152208e+00,2.189374811790222530e+00
2.219964940182274304e+00,1.926133707582245114e+00,2.271755983915993760e+00,2.108966693173160323e+00
2.031458117387696216e+00,1.723683773262287167e+00,2.036719855982526806e+00,1.929885211518311383e+00
1.512296002530391092e+00,1.348352027770818973e+00,1.656430139490194131e+00,1.436681202403871538e+00
1.426235194108125270e-01,2.457723055511403798e-01,2.891260457946883689e-01,1.354923434402718896e-01
-8.407318142823307916e-01,-7.108780239477607843e-01,-9.217837985167430803e-01,-7.986952235682142076e-01
-1.390194262519853563e+00,-1.366261931388195849e+00,-1.628579401331868404e+00,-1.320684549393860818e+00
-1.610518453715824805e+00,-1.507012669439732111e+00,-1.669774132896917562e+00,-1.529992531030033520e+00
-1.908699037433651879e+00,-1.808749695982394989e+00,-1.986413584852081193e+00,-1.813264085561969274e+00
-1.451167659327711412e+00,-1.242956383451920610e+00,-1.606397765573160497e+00,-1.378609276361325797e+00
-3.734577879320032379e-01,-4.070482482917736622e-02,-2.991977869623295705e-01,-3.547848985354030704e-01
3.563276160497305667e-01,2.206951726065876640e-01,4.127362874656047564e-01,3.385112352472440245e-01
1.018312846703987029e+00,7.665354015668591758e-01,1.268168580148915092e+00,9.673972043687876221e-01
1.383203596523911338e+00,1.142432117432030436e+00,1.592584125091868641e+00,1.314043416697715738e+00
1.410062758620857615e+00,1.244904753850013313e+00,1.386782416804519968e+00,1.339559620689814601e+00
1.070335520249778849e+00,9.349588683216853990e-01,1.199961466557732503e+00,1.016818744237289796e+00
1.722136131746943855e-01,1.821251012172284411e-01,3.217519363125965759e-01,1.636029325159596703e-01
-6.450733810866581264e-01,-7.455341735756850774e-01,-7.510075706097634196e-01,-6.128197120323252145e-01
-1.129531912429496021e+00,-1.021946583692909805e+00,-1.068189763030889194e+00,-1.073055316808021242e+00
-1.696790193203027597e+00,-1.510949801394737335e+00,-1.860481285595018353e+00,-1.611950683542876073e+00
-1.533488522118845232e+00,-1.474799307674392601e+00,-1.518471610862458299e+00,-1.456814096012902793e+00
-9.511765584603238954e-01,-7.236643375787297217e-01,-1.029359355114071839e+00,-9.036177305373076507e-01
-5.983369662322304272e-01,-4.355818562478697697e-01,-6.277486509239422752e-01,-5.684201179206188614e-01
5.092194434568150241e-01,4.890918648464980811e-01,3.846450575043763864e-01,4.837584712839742562e-01
1.590259487323915089e+00,1.304123612082360495e+00,1.790988158563669108e+00,1.510746512957719334e+00
1.906501607519172969e+00,1.744392465605292042e+00,1.954899402486717230e+00,1.811176527143214310e+00
1.862631610336816790e+00,1.852194679220808382e+00,1.897237001277114032e+00,1.769500029819975895e+00
1.530063836632336471e+00,1.307133485768398495e+00,1.693493691453266337e+00,1.453560644800719670e+00
1.162174934613637856e+00,1.038970856160458034e+00,1.303291677255472569e+00,1.104066187882955852e+00
1.712929269240212327e-01,2.472625941345814315e-01,1.950433022913675984e-01,1.627282805778201558e-01
-9.269852093825995398e-01,-7.898220691233690527e-01,-8.850930865142206949e-01,-8.806359489134695240e-01
-1.533383453065110924e+00,-1.327337988427058413e+00,-1.722059480264249043e+00,-1.456714280411855356e+00
-2.152615883586066037e+00,-2.106065981392101438e+00,-2.452676343736853060e+00,-2.044985089406762491e+00
-1.693123950025761104e+00,-1.577123472426448902e+00,-1.873901923431529504e+00,-1.608467752524473049e+00
-1.986875119475291829e+00,-1.720035959463194875e+00,-2.315730725206187834e+00,-1.887531363501527171e+00
-7.283755573483645662e-01,-7.414660095381472305e-01,-8.049994542504648187e-01,-6.919567794809463601e-01
3.186760705530141125e-01,4.055292626840616421e-01,3.279743560733651142e-01,3.027422670253633874e-01
5.534974379931345556e-01,4.445548295340348011e-01,5.499638169294581713e-01,5.258225660934777723e-01
1.588830024856172196e+00,1.443388800733956812e+00,1.760803180922100530e+00,1.509388523613363509e+00
1.965920801978534138e+00,1.815898754443540541e+00,2.204773268979175249e+00,1.867624761879607354e+00
2.015220358624508101e+00,1.778546514165137316e+00,2.183478029038680823e+00,1.914459340693282607e+00
1.228944715711096425e+00,1.050243969289758939e+00,1.404332894575492707e+00,1.167497479925541537e+00
6.849169703154425193e-01,6.952393901340372384e-01,8.389692886975820274e-01,6.506711217996703489e-01
-1.641006236887184166e-01,-1.671195919178329325e-01,-2.595395040624870475e-01,-1.558955925042824764e-01
-1.043552855885062192e+00,-8.946373646147095515e-01,-1.052235253327338249e+00,-9.913752130908090043e-01
-1.468980127916134082e+00,-1.206950130888512440e+00,-1.496031185915121409e+00,-1.395531121520327211e+00
-9.553001686412156968e-01,-8.545002109202484153e-01,-1.111166233952091353e+00,-9.075351602091549230e-01
-6.009876783682481793e-01,-4.977696457991791501e-01,-8.110493723658878107e-01,-5.709382944498357926e-01
-5.230319437554074025e-01,-6.282003055152158844e-01,-5.236699646112114026e-01,-4.968803465676370212e-01
2.469226546635522046e-01,5.531969667753575126e-02,4.010178130373981409e-01,2.345765219303745930e-01
1.198216029550235096e+00,1.028844030186480296e+00,1.227943200178251759e+00,1.138305228072723274e+00
1.338331319820338594e+00,1.217272085963267303e+00,1.361214773525383226e+00,1.271414753829321675e+00
1.465319827392688623e+00,1.307279137382482359e+00,1.550289918155868030e+00,1.392053836023054103e+00
8.529092305868571922e-01,8.904828101770410065e-01,9.706893713692557046e-01,8.102637690575142937e-01
5.591695481909635390e-01,4.334936642697586051e-01,5.423894940322829816e-01,5.312110707814153843e-01
-7.603275451898255932e-01,-7.055419120406333233e-01,-7.007728533251451619e-01,-7.223111679303342303e-01
-1.111559561143647956e+00,-1.057380665910961248e+00,-1.045658659637082266e+00,-1.055981583086465614e+00
-1.733638406905976037e+00,-1.425040036551004974e+00,-1.895168890972350306e+00,-1.646956486560677169e+00
-2.220021421643708415e+00,-2.009363673330080591e+00,-2.382313870788526522e+00,-2.109020350561523038e+00
-1.489189416535035226e+00,-1.490617630170657737e+00,-1.757347229016812618e+00,-1.414729945708283365e+00
-9.361687036231316483e-01,-8.363094690681640575e-01,-1.058728291891461559e+00,-8.893602684419750215e-01
-5.416226444702407217e-02,4.040583059229275326e-02,-7.165076035578035740e-02,-5.145415122467286717e-02
1.097570284140354513e+00,1.126233940874110440e+00,1.312227931614099674e+00,1.042691769933336676e+00
1.967469588583287132e+00,1.825058098794955397e+00,2.115529606271398411e+00,1.869096109154122720e+00
2.087553127302679723e+00,1.822240636710441564e+00,2.321632552423959162e+00,1.983175470937545537e+00
2.275467952206059685e+00,1.899623692959006238e+00,2.707378370972026715e+00,2.161694554595756657e+00
1.651803935729152295e+00,1.414902520034628575e+00,1.728552723039008754e+00,1.569213738942694558e+00
1.260783429103449649e+00,9.254449352300980758e-01,1.522941939786762289e+00,1.197744257648277078e+00
2.499593812378386043e-02,1.511639300168348132e-01,2.090516140467334194e-02,2.374614121759466637e-02
-5.969871529290098344e-01,-5.729443305538693965e-01,-6.118174477283645496e-01,-5.671377952825593649e-01
-1.489462791251594753e+00,-1.276280388889191819e+00,-1.756222910660970582e+00,-1.414989651689015027e+00
-1.681349293747653739e+00,-1.505960798687448587e+00,-1.883203743650620821e+00,-1.597281829060271052e+00
-1.771805402457514278e+00,-1.647630364478076315e+00,-1.762479926133531327e+00,-1.683215132334638486e+00
-1.447171555656175945e+00,-1.403311028590719989e+00,-1.633138855921694166e+00,-1.374812977873367092e+00
-7.469529904088744177e-01,-7.336459662028148587e-01,-7.530856067718770808e-01,-7.096053408884306357e-01
1.970756776892779727e-01,2.407412344175058339e-01,2.381916610703430914e-01,1.872218938048140768e-01
6.055538030023378537e-01,4.255959667396589374e-01,6.150708535937179366e-01,5.752761128522209111e-01
1.540207542463401191e+00,1.328859653188033896e+00,1.686845307595485011e+00,1.463197165340231143e+00
1.465129797254117516e+00,1.280952849996027876e+00,1.674916546286074670e+00,1.391873307391411574e+00
1.251293761670205340e+00,9.165575213550434253e-01,1.418449320109393286e+00,1.188729073586695106e+00
1.089454951460523680e-01,1.123251014969359335e-01,2.701715176723963885e-01,1.034982203887497426e-01
-6.775165300462052675e-01,-6.051546488190582274e-01,-7.174631002671373325e-01,-6.436407035438950208e-01
-1.167345244763688061e+00,-1.111677137337002685e+00,-1.258042766889169828e+00,-1.108977982525503503e+00
-1.167096031717139271e+00,-9.919482096373638536e-01,-1.482929333859494214e+00,-1.108741230131282229e+00
-1.241655118058401897e+00,-1.037717347951824243e+00,-1.388429286036449550e+00,-1.179572362155481668e+00
-1.048518813176323894e+00,-8.518928185109448936e-01,-1.144997180942596282e+00,-9.960928725175076659e-01
-4.004061931205322722e-01,-2.497346414209803966e-01,-3.468715477860832008e-01,-3.803858834645056364e-01
9.426452642541190974e-01,8.025358441418828370e-01,1.109463793983260338e+00,8.955130010414130703e-01
1.301876578531334649e+00,1.007961173783021858e+00,1.435987643352711229e+00,1.236782749604767861e+00
1.728250979884045524e+00,1.592269685362482257e+00,1.854974531933538229e+00,1.641838430889843270e+00
2.013029442945914571e+00,1.753322079975082382e+00,2.318862725289465132e+00,1.912377970798618820e+00
1.978002117729361631e+00,1.938580399995179615e+00,2.094550073194890505e+00,1.879102011842893383e+00
7.414802172910462952e-01,6.260397294240113153e-01,8.837041304107836615e-01,7.044062064264939860e-01
2.343145908416189027e-01,2.162296588961948873e-01,2.614333951070231810e-01,2.225988612995379590e-01
-7.554640187318508726e-01,-5.371163167535921712e-01,-9.587585843807118202e-01,-7.176908177952583401e-01
-2.043345983535258981e+00,-1.816627203556644643e+00,-2.353910062260286651e+00,-1.941178684358495943e+00
-2.054421091872300043e+00,-1.967407234838145280e+00,-2.415393277588042231e+00,-1.951700037278685018e+00
-2.026174456190469542e+00,-1.857041064128165386e+00,-2.262216538995945214e+00,-1.924865733380946020e+00
-1.645045495855128603e+00,-1.520908673216237572e+00,-1.772549710512334009e+00,-1.562793221062372062e+00
-1.293056663267274420e+00,-1.241600914472174910e+00,-1.341485334349645342e+00,-1.228403830103910632e+00
1.539805549754308389e-01,1.604529464241030157e-01,2.531227832168889136e-01,1.462815272266592970e-01
7.931101252117620515e-01,6.162879107333963935e-01,9.888751345189742414e-01,7.534546189511739378e-01
1.608422253913941002e+00,1.254885176180521533e+00,1.722099133787748260e+00,1.528001141218243930e+00
2.000381816630482312e+00,1.891374570252550624e+00,2.166416479762061087e+00,1.900362725798958152e+00
2.051760241235727644e+00,1.665190835270115244e+00,2.174225935376903340e+00,1.949172229173941062e+00
8.735847926079590708e-01,7.272299546711875617e-01,9.840017937520908475e-01,8.299055529775610784e-01
2.776520946064589546e-01,2.727209541353056710e-01,3.587658516126123742e-01,2.637694898761360207e-01
-4.920456946798601461e-01,-5.099524826475875239e-01,-5.194994482647262712e-01,-4.674434099458671388e-01
-1.148438583057736828e+00,-1.012897437488096131e+00,-1.275705589665784068e+00,-1.091016653904850031e+00
-1.423063249190472668e+00,-1.246634284984348806e+00,-1.519880185175484844e+00,-1.351910086730949034e+00
-1.260591003950481737e+00,-1.025384512952732363e+00,-1.236513451664648766e+00,-1.197561453752957528e+00
-8.780101884307027760e-01,-8.336686575525320553e-01,-9.034484254824723948e-01,-8.341096790091675484e-01
-2.457729017349444267e-01,-1.539111467734762817e-01,-2.938543650598974266e-01,-2.334842566481971915e-01
6.166874599843038540e-01,4.327092063221001927e-01,6.796159796969986067e-01,5.858530869850886447e-01
8.905735296452667038e-01,7.814094479448179253e-01,9.545881267390593505e-01,8.460448531630033742e-01
1.515228587116474568e+00,1.446981437221656730e+00,1.631507079215330336e+00,1.439467157760650817e+00
1.483077586142434345e+00,1.511210031737547865e+00,1.476711646377495635e+00,1.408923706835312650e+00
7.579649264016090626e-01,6.326734633101851468e-01,8.002661220845196377e-01,7.200666800815285207e-01
1.629248379074438868e-01,8.588144238249068030e-02,2.524437590842384393e-01,1.547785960120716953e-01
-8.660857683012905817e-01,-7.631660617718277750e-01,-1.033493955769953621e+00,-8.227814798862259638e-01
-1.198273089986628293e+00,-1.199930460591411396e+00,-1.264688764323500081e+00,-1.138359435487296789e+00
-1.995379149596241630e+00,-2.027547547715830234e+00,-1.912932095803440369e+00,-1.895610192116429449e+00
-1.774567519132176807e+00,-1.530559987143029099e+00,-1.945433987443246471e+00,-1.685839143175567933e+00
-1.714185445500297833e+00,-1.486340598258087953e+00,-1.810887454429338961e+00,-1.628476173225282819e+00
-1.288993658386547780e+00,-1.173990798018648585e+00,-1.518397268415494272e+00,-1.224543975467220269e+00
1.262689047734126269e-01,2.869535076093809867e-01,9.503469677999437648e-02,1.199554595347419872e-01
7.570715399860161732e-01,6.588042815169987687e-01,9.306087809245862097e-01,7.192179629867153645e-01
1.875260751089947941e+00,1.770565199154574110e+00,1.991996137175250592e+00,1.781497713535450389e+00
2.066152788578407229e+00,1.916897379324890460e+00,2.196188780661413986e+00,1.962845149149486712e+00
2.337065052760275208e+00,2.038128294500388016e+00,2.682337180467575966e+00,2.220211800122261270e+00
1.541168882466807499e+00,1.529953301327320103e+00,1.672085497030601386e+00,1.464110438343467102e+00
1.169261771050913890e+00,1.003834618375685883e+00,1.283562328531630881e+00,1.110798682498368217e+00
-9.297163049434922777e-02,-2.848763129143236372e-02,-1.899572958415861323e-01,-8.832304896963176499e-02
-7.256899794808838733e-01,-6.848566477624720150e-01,-7.219012111363576345e-01,-6.894054805068396963e-01
-1.576685732713908772e+00,-1.455116298913973649e+00,-1.773707936660633866e+00,-1.497851446078213300e+00
-1.936254702332177668e+00,-1.910532871002603716e+00,-2.226155278813133798e+00,-1.839441967215568630e+00
-1.942247681553058491e+00,-1.667116284576238616e+00,-2.233450261408234550e+00,-1.845135297475405389e+00
-1.176600039328811631e+00,-1.082502152575220755e+00,-1.275637373223566851e+00,-1.117770037362370905e+00
-4.518386274984352302e-01,-4.262165217615521695e-01,-5.814147361610575437e-01,-4.292466961235134604e-01
3.030966271182194416e-01,4.910915391479603320e-01,2.865682606214743910e-01,2.879417957623084390e-01
1.159822554085881086e+00,9.687258163916381282e-01,1.201305223487959539e+00,1.101831426381586931e+00
1.199154323463917482e+00,1.086677846944371861e+00,1.454073666965145728e+00,1.139196607290721586e+00
1.217493194842649284e+00,1.305937192992517648e+00,1.284349296190601786e+00,1.156618535100516709e+00
6.306710292074610980e-01,6.171397400703796388e-01,6.136230426554362127e-01,5.991374777470880320e-01
7.009707399682423290e-01,5.922210366911532242e-01,7.872142768364821519e-01,6.659222029698301792e-01
-5.273626615950769425e-01,-3.715921046621755153e-01,-4.008056667204641377e-01,-5.009945285153231120e-01
-1.141558985625266587e+00,-1.156225558227456318e+00,-1.198173181718799718e+00,-1.084481036344003169e+00
-1.349672545429404735e+00,-1.154089853917295905e+00,-1.472061187810310479e+00,-1.282188918157934454e+00
-1.277370837219860666e+00,-1.294201785439880181e+00,-1.531843489155323201e+00,-1.213502295358867666e+00
-6.646939892806598138e-01,-7.224231680022410451e-01,-5.919244293371260790e-01,-6.314592898166268009e-01
-5.043263678887657808e-02,-1.489093685658993832e-02,-1.102442656942392019e-01,-4.791100494943274779e-02
6.981824803626365261e-01,5.208768127311372842e-01,7.549472336615106194e-01,6.632733563445046832e-01
1.225730882535718713e+00,1.063266930288266687e+00,1.274538076020053090e+00,1.164444338408932689e+00
1.859225045296856393e+00,1.717729151827180667e+00,2.198068390292849728e+00,1.766263793032013529e+00
1.915255544483138284e+00,1.702537284466145717e+00,2.116100216143192547e+00,1.819492767258981347e+00
1.712631871778637294e+00,1.582598764725181129e+00,1.926785871683307949e+00,1.627000278189705273e+00
6.829429238876769670e-01,4.891671828500490093e-01,6.739603214072323878e-01,6.487957776932931075e-01
-1.647502043503020763e-01,-2.167536607789289915e-01,-1.330052945843568923e-01,-1.565126941327869559e-01
-1.257045288300911778e+00,-1.124476497481423864e+00,-1.262699972122151015e+00,-1.194193023885866234e+00
-1.705877019263380978e+00,-1.645142921443485617e+00,-1.821345466829898507e+00,-1.620583168300211874e+00
-2.659821264475664471e+00,-2.389631291210339459e+00,-2.897225097420665474e+00,-2.526830201251881292e+00
-2.279566763984063105e+00,-2.071109571645365577e+00,-2.522609941745155293e+00,-2.165588425784859883e+00
-1.871366400880632774e+00,-1.549779659365970286e+00,-2.024948016618869584e+00,-1.777798080836600958e+00
-8.118073776183192258e-01,-7.339209424757964229e-01,-9.455801268643547752e-01,-7.712170087374031757e-01
-8.546324536603526478e-02,-4.824074760995333833e-03,-2.345162594322615091e-01,-8.119008309773349807e-02
1.213812816801497441e+00,1.108157858077361224e+00,1.350073284705289201e+00,1.153122175961422524e+00
1.193341545789536218e+00,1.078514522480910953e+00,1.308023854739941871e+00,1.133674468500059263e+00
2.087859978335162126e+00,2.005295624507101859e+00,2.200884853022673227e+00,1.983466979418403886e+00
1.712485495068037267e+00,1.646934324325168175e+00,1.909427401370650479e+00,1.626861220314635315e+00
1.410017715931584315e+00,1.462214218212876116e+00,1.545099215823062755e+00,1.339516830135005110e+00
4.748311025099314908e-01,6.457863063570579154e-01,5.682929161583392119e-01,4.510895473844349080e-01
-4.182935088365851151e-01,-5.147235561178541419e-01,-4.266195409575539443e-01,-3.973788333947558260e-01
-1.037188812564364016e+00,-7.704735385457639474e-01,-1.148514293217600457e+00,-9.853293719361457814e-01
-1.663344382950205702e+00,-1.632541439987015064e+00,-1.896384633575626699e+00,-1.580177163802695350e+00
-1.364912611338327419e+00,-1.189808465057615949e+00,-1.529742661211912269e+00,-1.296666980771411071e+00
-5.744919621721020775e-01,-4.409459000516569027e-01,-4.765296022899494499e-01,-5.457673640634969070e-01
-3.355397426508245906e-01,-2.116013928820015266e-01,-5.201728961397505957e-01,-3.187627555182833694e-01
5.865932967427669453e-01,5.774635728472246043e-01,6.557278941648085890e-01,5.572636319056285537e-01
1.033891323451493705e+00,8.298005710876216190e-01,1.177443322160000028e+00,9.821967572789189749e-01
1.389213433086283533e+00,1.115280969232659292e+00,1.545571636655530545e+00,1.319752761431969290e+00
1.140908479676756571e+00,9.636757696667759276e-01,1.352507403546006959e+00,1.083863055692918742e+00
1.200733429608570546e+00,9.897885643048227600e-01,1.458116071646896605e+00,1.140696758128141974e+00
1.602289270121612930e-01,8.182026614681804644e-02,1.257358894287647910e-01,1.522174806615532172e-01
-7.648218633274010969e-01,-7.283197738598519155e-01,-8.628571855072242336e-01,-7.265807701610309532e-01
-1.325734921626872120e+00,-1.063753682050810667e+00,-1.502939232889604293e+00,-1.259448175545528459e+00
-1.952820043257252891e+00,-1.711516336407037597e+00,-2.194863748237697365e+00,-1.855179041094390247e+00
-2.426261703160913719e+00,-2.153026271468158281e+00,-2.765456339803001207e+00,-2.304948618002867988e+00
-1.488534991764021154e+00,-1.260725637728413728e+00,-1.374724293239478090e+00,-1.414108242175819985e+00
-8.505458452455166851e-01,-5.545127569275616342e-01,-8.167552970801909007e-01,-8.080185529832407676e-01
-1.636057923204232989e-01,-9.776612624850189448e-02,-1.170212088026734987e-01,-1.554255027044021131e-01
1.166006362160569632e+00,1.184209565893162619e+00,1.171661738697520994e+00,1.107706044052541028e+00
1.909636261391022716e+00,1.665908083749732649e+00,1.980714075289381038e+00,1.814154448321471547e+00
2.254402249641428213e+00,2.113584011976636035e+00,2.349086994507442849e+00,2.141682137159356625e+00
2.004919251163863603e+00,1.827669921649780704e+00,2.298855661035511311e+00,1.904673288605670312e+00
1.734231518726940369e+00,1.565181118844183317e+00,1.932121315912706416e+00,1.647519942790593328e+00
1.054390240097169862e+00,1.042700246775853490e+00,1.152027271859594970e+00,1.001670728092311391e+00
5.519794963642642160e-02,1.961560640084376583e-01,2.406168323287492805e-01,5.243805215460509844e-02
-7.083828277107475646e-01,-6.584843120880126133e-01,-7.601356850969673840e-01,-6.729636863252101975e-01
-1.868776148961358796e+00,-1.766268349564479756e+00,-2.055147265550036462e+00,-1.775337341513290701e+00
-1.569832001032977598e+00,-1.536171423712142214e+00,-1.714818621374711416e+00,-1.491340400981328695e+00
-1.629790161676488713e+00,-1.286094070470301887e+00,-1.923058510906532348e+00,-1.548300653592664222e+00
-1.413344941755742212e+00,-1.131636044307253286e+00,-1.425533702397657976e+00,-1.342677694667955057e+00
-2.011512612689958235e-01,-1.159630274378378317e-01,-1.860160236647613041e-01,-1.910936982055460309e-01
3.534223236911768762e-01,1.951212228347278810e-01,3.734436971191860133e-01,3.357512075066180213e-01
9.989568657456373568e-01,9.066293929675705021e-01,9.280440669927138009e-01,9.490090224583555001e-01
1.508748316145098745e+00,1.515949602937219254e+00,1.786266751745692716e+00,1.433310900337843696e+00
1.457431550892298366e+00,1.291364436237184998e+00,1.592701962785542102e+00,1.384559973347683437e+00
6.782015842848035936e-01,4.889573038323088983e-01,6.347330775078139364e-01,6.442915050705634306e-01
-2.127406370911882894e-02,3.679082055619267017e-02,-1.609443373114678721e-01,-2.021036052366288749e-02
-7.491237677417983409e-01,-6.833533183330076088e-01,-7.227191447432711469e-01,-7.116675793547083684e-01
-8.549036660659539155e-01,-8.284116852906912021e-01,-8.955548026230185643e-01,-8.121584827626562308e-01
-1.158168084743748993e+00,-9.889342140967514183e-01,-1.220202277065016494e+00,-1.100259680506561422e+00
-1.452239877564820647e+00,-1.229334960884236772e+00,-1.682662564626759449e+00,-1.379627883686579626e+00
-4.874112436336243692e-01,-3.823308762135222416e-01,-4.210347466754138512e-01,-4.630406814519431036e-01
7.462946872039910584e-02,-1.050005823587432663e-02,1.009665629835890810e-01,7.089799528437915055e-02
7.352658903594782025e-01,5.094131911917167965e-01,8.894847862957286910e-01,6.985025958415043146e-01
1.712341831568061634e+00,1.488958254658079960e+00,1.906417462280556974e+00,1.626724739989658497e+00
1.793877506401532873e+00,1.612528200160602276e+00,1.953645671188483535e+00,1.704183631081456207e+00
1.784051912907599124e+00,1.603083602113749340e+00,1.777835532718211153e+00,1.694849317262218991e+00
1.665215574093144690e+00,1.624389457350906785e+00,1.977547185046117484e+00,1.581954795388487378e+00
6.103947271029148691e-01,6.674709707439493434e-01,7.616627921044681893e-01,5.798749907477690479e-01
3.999470863666916287e-01,2.656005545442546301e-01,4.826601744134777494e-01,3.799497320483570251e-01
-1.279103500014968864e+00,-1.191506440056234739e+00,-1.265001686256863378e+00,-1.215148325014220321e+00
-1.900695155056564500e+00,-1.748011867449753565e+00,-2.139160263652048588e+00,-1.805660397303736175e+00
-2.436570487536559249e+00,-2.233321160485482348e+00,-2.721391333165306126e+00,-2.314741963159731242e+00
-2.311054719174644223e+00,-2.267776165563653468e+00,-2.696120138458568238e+00,-2.195501983215911945e+00
-1.751820957243784393e+00,-1.613894867849283932e+00,-1.815999516492467381e+00,-1.664229909381595096e+00
-1.112754495232318952e+00,-9.742838631860372134e-01,-1.359432723215853178e+00,-1.057116770470702960e+00
2.833340843409613841e-02,4.088416930737187593e-02,5.735283748157427725e-02,2.691673801239133010e-02
9.513306710964883894e-01,1.109041886088414142e+00,9.896745188578313090e-01,9.037641375416639589e-01
1.512414289871984341e+00,1.193471430996026372e+00,1.616594858692859349e+00,1.436793575378385146e+00
1.710124487979609809e+00,1.435471759842240624e+00,2.047393630803659992e+00,1.624618263580629218e+00
1.517733689036780742e+00,1.302615632383388622e+00,1.701469783967880955e+00,1.441847004584941638e+00
1.306515791065126830e+00,1.084503040325005996e+00,1.374826745182328169e+00,1.241190001511870422e+00
3.505139128433572560e-01,4.246481702414779402e-01,4.487306636344253752e-01,3.329882172011893737e-01
-6.658947003034850765e-01,-5.146085836387933599e-01,-7.449025265775789384e-01,-6.325999652883107505e-01
-8.752920359381558546e-01,-7.225970698716838170e-01,-9.101035380689576071e-01,-8.315274341412479675e-01
-1.078556145853662995e+00,-1.224366531177019546e+00,-1.166439092500604069e+00,-1.024628338560979790e+00
-1.447331350890328272e+00,-1.240628050910931757e+00,-1.506119743837902369e+00,-1.374964783345811847e+00
-8.669385274799082941e-01,-6.428346977885928126e-01,-8.701265423869287696e-01,-8.235916011059128961e-01
-4.228955918434074146e-01,-3.312874015575277276e-01,-3.278186968991635974e-01,-4.017508122512370439e-01
5.720322890724901521e-01,5.102655763532180089e-01,5.859918513493264092e-01,5.434306746188656279e-01
9.932439573644834541e-01,1.182701712346459377e+00,1.100107246838917696e+00,9.435817594962592203e-01
1.105563748896959408e+00,9.442909935977481517e-01,1.244081473033833873e+00,1.050285561452111383e+00
1.299446897209402429e+00,1.119495194571393792e+00,1.340155046377097925e+00,1.234474552348932219e+00
8.244675092031287233e-01,8.042026767439648394e-01,1.043872143114109141e+00,7.832441337429723038e-01
5.181122099785906432e-01,5.306675575417498791e-01,5.739098311716064327e-01,4.922065994796611110e-01
-2.823912239110568656e-01,-2.560646604701790618e-01,-3.495218991424062227e-01,-2.682716627155040112e-01
-1.775258739020498355e+00,-1.584228901153801550e+00,-2.058394390551550490e+00,-1.686495802069473360e+00
-2.120495504172543733e+00,-1.957387458362234378e+00,-2.347934174640312843e+00,-2.014470728963916546e+00
-2.017926069011894086e+00,-1.698300168829126822e+00,-2.320638557998481843e+00,-1.917029765561299337e+00
-1.484876788284684279e+00,-1.349963421896010596e+00,-1.567243360999348578e+00,-1.410632948870450099e+00
-9.923372869101121374e-01,-9.050217476227726543e-01,-1.107134000379160099e+00,-9.427204225646065305e-01
-1.259602842637184972e-02,-2.015224371834308803e-01,-6.499436838851113674e-02,-1.196622700505325584e-02
7.527378220889053839e-01,7.150495429584681206e-01,8.824057507628800812e-01,7.151009309844600370e-01
2.006688673626947583e+00,1.824912726581579214e+00,2.127223592134025232e+00,1.906354239945600160e+00
2.204870408833969897e+00,1.969753020084103579e+00,2.399298323622392370e+00,2.094626888392271180e+00
2.239585811587543773e+00,2.070869647395638058e+00,2.437636456944566543e+00,2.127606521008166496e+00
1.805045010305362130e+00,1.651205347903166976e+00,1.751180114455038073e+00,1.714792759790094046e+00
7.790917363087697112e-01,8.278679251366839464e-01,7.547802906138503243e-01,7.401371494933312034e-01
-3.967198725257778391e-02,-8.607371379558534374e-02,-7.327387909690527557e-02,-3.768838788994889610e-02
-8.172145343770247372e-01,-7.495392344783056160e-01,-9.362865965774029853e-01,-7.763538076581734115e-01
-2.114898723874430342e+00,-1.847594064656260304e+00,-2.196942458731075742e+00,-2.009153787680708625e+00
-1.490010192691538560e+00,-1.332808348309156177e+00,-1.736681283112464502e+00,-1.415509683056961565e+00
-1.685740100973174282e+00,-1.561521627882784369e+00,-1.764527402749327400e+00,-1.601453095924515457e+00
-1.673148150113216603e+00,-1.552902358684391082e+00,-1.762393392542735526e+00,-1.589490742607555740e+00
-6.400636100153778152e-01,-6.414750871345715755e-01,-6.927280791850354280e-01,-6.080604295146089244e-01
4.328719862945537011e-01,4.162924220252297025e-01,3.599346633343210589e-01,4.112283869798259994e-01
9.782744700424929052e-01,8.848874910127850768e-01,1.101936486132334636e+00,9.293607465403682655e-01
1.539636517145603012e+00,1.331810437903999000e+00,1.968872793955655176e+00,1.462654691288322706e+00
1.187844124601606932e+00,1.062706225314904884e+00,1.309087504574129035e+00,1.128451918371526475e+00
1.183953321458211860e+00,1.258840874811982147e+00,1.271935739905276863e+00,1.124755655385301312e+00
4.522344434564909421e-01,4.598936641380704238e-01,3.737345128049198162e-01,4.296227212836663534e-01
-9.764994116647498501e-01,-7.550261284571487819e-01,-9.509855685241346279e-01,-9.276744410815123132e-01
-1.126756013149009972e+00,-1.112166518605874010e+00,-1.285928052926541554e+00,-1.070418212491559329e+00
-1.369498158869292492e+00,-1.322299645888268760e+00,-1.619190334460690606e+00,-1.301023250925827712e+00
-1.114626650546682196e+00,-1.163193954018460152e+00,-1.179845466129615827e+00,-1.058895318019348109e+00
-5.247345418317856947e-01,-5.513540635373886944e-01,-3.570502908112620499e-01,-4.984978147401963877e-01
-3.089574289967894072e-01,-3.051059995748325315e-01,-2.709530738023938623e-01,-2.935095575469499063e-01
7.264997762096081502e-01,6.217346579393397965e-01,5.099852338043453504e-01,6.901747873991277427e-01
1.547425466922592419e+00,1.506091454421603082e+00,1.820078935844974044e+00,1.470054193576462831e+00
1.750150796912553153e+00,1.607012367531228669e+00,1.935120872517485324e+00,1.662643257066925395e+00
2.073447921413428041e+00,1.776023298042413323e+00,2.116580702934892422e+00,1.969775525342756461e+00
1.631883415755016165e+00,1.377486601302644331e+00,1.612573423401708395e+00,1.550289244967265390e+00
6.978708285068421224e-01,5.781933562797589854e-01,8.045461869919440234e-01,6.629772870814999441e-01
1.055226715613788169e-01,-6.483932699673805589e-02,-8.283636166015226343e-02,1.002465379833098746e-01
-6.867340903781946615e-01,-6.478468114418350909e-01,-6.257588108661636950e-01,-6.523973858592848618e-01
-1.871544864804021158e+00,-1.866005798297684093e+00,-2.097046672227249609e+00,-1.777967621563820044e+00
-1.970821567529268181e+00,-1.750834833696320425e+00,-2.016780046973044804e+00,-1.872280489152804650e+00
-2.092863366367602396e+00,-2.000323016321284619e+00,-2.383125951583228819e+00,-1.988220198049222232e+00
-1.877528621571363354e+00,-1.571531513099150512e+00,-2.150822484422731939e+00,-1.783652190492795109e+00
-9.488954753526728236e-01,-6.665107403298273780e-01,-1.043624726160418126e+00,-9.014507015850391491e-01
9.393155603791605857e-02,6.467125048980773561e-02,1.298742409262467201e-01,8.923497823602025147e-02
1.017481732339296396e+00,9.214008245518453544e-01,1.186315394534121603e+00,9.666076457223314877e-01
1.506496984974099007e+00,1.398488364665383843e+00,1.699200695959360852e+00,1.431172135725393924e+00
1.968281496593541791e+00,1.723204438261368932e+00,2.307108463950656496e+00,1.869867421763864668e+00
1.204545761268253301e+00,9.816008769045487803e-01,1.375716475476507883e+00,1.144318473204840592e+00
1.542374408533987218e+00,1.552108841644413539e+00,1.693008439033517387e+00,1.465255688107287790e+00
4.078904303271311260e-01,4.817966623270771298e-01,4.763738062124888151e-01,3.874959088107745586e-01
-5.365502565091658793e-01,-5.114173817918722387e-01,-6.298050435735381702e-01,-5.097227436837075132e-01
-9.435415706811768333e-01,-7.388868478568288989e-01,-1.034889163916468124e+00,-8.963644921471179972e-01
-1.442132252667273296e+00,-1.275642592724881341e+00,-1.483225886056441123e+00,-1.370025640033909475e+00
-1.265165822583269151e+00,-1.165596531228364263e+00,-1.300256380183265392e+00,-1.201907531454105671e+00
-8.655530424362699593e-01,-7.931866769232812642e-01,-9.669583433645970727e-01,-8.222753903144564003e-01
-2.859027042021473619e-01,-4.497697614776415831e-01,-2.929339360625414779e-01,-2.716075689920399716e-01
5.879552906294189807e-01,4.567932269274210810e-01,8.159603059399161973e-01,5.585575260979479539e-01
9.962563783976488008e-01,9.384370243995268090e-01,1.007093908326211151e+00,9.464435594777663718e-01
1.468609378722759207e+00,1.132418884150333760e+00,1.570559575187561396e+00,1.395178909786621180e+00
1.432825429591569666e+00,1.285925233286260738e+00,1.560406259840535048e+00,1.361184158111991227e+00
1.052065780702906572e+00,1.030132608716628262e+00,1.228429723078543701e+00,9.994624916677612436e-01
3.535619229143910913e-01,3.946309278726460867e-01,5.116742724438132495e-01,3.358838267686715118e-01
-8.554532692470138144e-01,-9.575942663773006069e-01,-7.795112193646982490e-01,-8.126806057846630571e-01
-1.541068855867195220e+00,-1.724993966451686900e+00,-1.598306987813157720e+00,-1.464015413073835425e+00
-2.031023999816165215e+00,-1.890241865542101607e+00,-2.270650241343686204e+00,-1.929472799825356910e+00
-1.649233816016445031e+00,-1.689135813785443307e+00,-1.664211880869337579e+00,-1.566772125215622813e+00
-1.715795554267762757e+00,-1.463980050474879446e+00,-1.785425189367716214e+00,-1.630005776554374508e+00
-8.577635065910237389e-01,-5.802886962795267278e-01,-8.462245052920858157e-01,-8.148753312614724909e-01
2.631974916160235711e-01,1.201843478848330787e-01,2.514415954223365723e-01,2.500376170352223704e-01
8.592144164997135292e-01,9.370632755271496306e-01,7.840021070433520478e-01,8.162536956747278305e-01
1.750258906181556329e+00,1.556957265811095947e+00,1.893418842265263136e+00,1.662745960872478390e+00
2.116742402728086336e+00,1.921057649608397533e+00,2.372570868195393867e+00,2.010905282591681775e+00
1.969615412130346632e+00,1.813698869864308616e+00,2.003828975319858596e+00,1.871134641523829245e+00
1.851825639374377719e+00,1.741129948368378644e+00,2.147691005704030154e+00,1.759234357405658811e+00
7.241313343792789015e-01,7.228756846132935454e-01,7.474581170636388494e-01,6.879247676603149619e-01
-1.724811467124845732e-01,-9.883078296160680010e-02,-6.680445473945777202e-02,-1.638570893768603320e-01
-1.305960889749194553e+00,-1.245228057020386192e+00,-1.412982034137305165e+00,-1.240662845261734759e+00
-1.508705408999605480e+00,-1.486242734145071909e+00,-1.481676506846065555e+00,-1.433270138549625150e+00
-1.695158671040269516e+00,-1.673852803556877378e+00,-1.769320772953066001e+00,-1.610400737488256073e+00
-1.670916078328840371e+00,-1.690153084428957175e+00,-1.811035425593469528e+00,-1.587370274412398308e+00
-1.543975831242385688e+00,-1.364683703232096645e+00,-1.769246987478125144e+00,-1.466777039680266403e+00
-2.867998487278399788e-01,-3.456379732107423552e-01,-3.508697366484341273e-01,-2.724598562914479771e-01
2.221938337519979711e-01,2.981175258524459415e-01,2.384431390658501293e-01,2.110841420643980726e-01
1.000868736341801846e+00,8.208589487055728551e-01,1.110229402660331433e+00,9.508252995247117312e-01
1.696023429603433996e+00,1.499139952364402673e+00,2.013258812313435175e+00,1.611222258123262252e+00
1.000560094034269820e+00,1.019302576527326476e+00,1.101309546798052263e+00,9.505320893325562848e-01
6.007810733971874484e-01,4.248401255463763460e-01,5.320458838314510164e-01,5.707420197273280760e-01
2.422988311787334925e-01,5.365716075221621528e-02,2.097815020866496960e-01,2.301838896197967999e-01
-4.849394861900073184e-01,-3.952854315729329437e-01,-6.914137575324483809e-01,-4.606925118805069164e-01
-1.182253611241050661e+00,-1.015803530895833973e+00,-1.316278957979559738e+00,-1.123140930678998117e+00
-1.086310870370900128e+00,-1.094517313061029284e+00,-1.116669880315248831e+00,-1.031995326852355177e+00
-1.201434414706108900e+00,-1.058293306931204603e+00,-1.241506108644305995e+00,-1.141362693970803477e+00
-7.225611723032072664e-01,-7.081839314227668103e-01,-7.917617400473978551e-01,-6.864331136880468254e-01
